Date and Time:                Thu Apr 18 12:41:09.524 2024
Software Version:             4.30.30000.0
Temperature (C):              -90
Model:                        DU971P_UVB
Data Type:                    Counts
Acquisition Mode:             Single Scan
Trigger Mode:                 Internal
Exposure Time (secs):         0.5
Readout Mode:                 Full Vertical Binning
Horizontal binning:           1
Extended Dynamic Range:       off
Horizontally flipped:         false
Vertical Shift Speed (usecs): 9.68
Pixel Readout Rate (MHz):     3
Baseline Clamp:               ON
Clock Amplitude:              Normal
Output Amplifier:             Conventional
Serial Number:                20367
Pre-Amplifier Gain:           4x
Spurious Noise Filter Mode:   No Filter
Photon counted:               false
Data Averaging Filter Mode:   No Filter
SR193i:
Serial Number:                SR-2646
Wavelength (nm):              660
Grating Groove Density (l/mm):300
Grating Blaze:                500nm
Input Side Slit Width (um):   1000



447.98325	6425
448.24188	6546
448.50052	6637
448.75912	6433
449.01776	6612
449.2764	6789
449.535	6646
449.79364	6946
450.05225	6789
450.31085	6812
450.56949	6859
450.82809	6575
451.0867	6565
451.34531	6468
451.60391	6355
451.86252	6451
452.12112	6211
452.37973	6061
452.63834	6295
452.89691	5959
453.15552	6087
453.41412	5967
453.6727	5816
453.9313	5769
454.18988	5801
454.44846	5719
454.70706	5572
454.96564	5610
455.22421	5585
455.48279	5555
455.74136	5620
455.99994	5567
456.25851	5504
456.51709	5362
456.77567	5429
457.03424	5428
457.29279	5151
457.55136	5306
457.80991	5369
458.06848	5239
458.32703	5166
458.5856	5293
458.84415	5251
459.10269	5255
459.36124	5255
459.61978	5308
459.87833	5334
460.13687	5150
460.39542	5257
460.65396	5398
460.91251	5251
461.17102	5344
461.42957	5373
461.68811	5310
461.94662	5167
462.20514	5386
462.46368	5367
462.7222	5487
462.98071	5364
463.23923	5503
463.49777	5406
463.75629	5483
464.01477	5569
464.27328	5622
464.5318	5766
464.79031	5729
465.0488	5771
465.30731	5703
465.56583	5874
465.82431	5928
466.08279	6018
466.34131	6019
466.59979	5816
466.85828	6071
467.11676	6122
467.37524	6224
467.63373	6205
467.89221	6176
468.1507	6333
468.40918	6358
468.66763	6397
468.92612	6356
469.18457	6402
469.44305	6505
469.70151	6600
469.95999	6611
470.21844	6640
470.4769	6820
470.73535	6723
470.9938	6817
471.25226	7024
471.51071	7070
471.76917	7182
472.02759	7144
472.28604	7262
472.54449	7314
472.80292	7402
473.06137	7168
473.31979	7415
473.57822	7433
473.83664	7614
474.09506	7353
474.35352	7448
474.61191	7474
474.87033	7715
475.12875	7763
475.38718	7783
475.6456	7817
475.90399	7940
476.16241	7939
476.42081	7906
476.6792	7987
476.93762	8026
477.19601	8035
477.45441	7962
477.7128	8015
477.97119	8206
478.22958	8024
478.48798	8185
478.74637	8142
479.00473	8395
479.26312	8281
479.52148	8334
479.77988	8245
480.03824	8531
480.2966	8433
480.55496	8185
480.81335	8353
481.07172	8487
481.33005	8417
481.58841	8325
481.84677	8507
482.10513	8449
482.36346	8302
482.62183	8556
482.88016	8595
483.13852	8328
483.39685	8358
483.65518	8718
483.91351	8545
484.17184	8414
484.43018	8733
484.68851	8498
484.94684	8394
485.20517	8417
485.46347	8611
485.7218	8516
485.9801	8562
486.23843	8562
486.49673	8611
486.75504	8775
487.01334	8584
487.27164	8583
487.52994	8554
487.78824	8591
488.04654	8606
488.30484	8531
488.56311	8692
488.82141	8530
489.07968	8586
489.33798	8616
489.59625	8770
489.85452	8647
490.11279	8533
490.37106	8520
490.62933	8644
490.8876	8573
491.14587	8572
491.40411	8529
491.66238	8634
491.92065	8689
492.17889	8643
492.43713	8708
492.69537	8770
492.95364	8534
493.21188	8532
493.47012	8409
493.72833	8584
493.98657	8780
494.24481	8654
494.50305	8706
494.76126	8589
495.0195	8621
495.27771	8673
495.53592	8814
495.79413	8494
496.05234	8465
496.31055	8597
496.56876	8703
496.82697	8699
497.08517	8753
497.34335	8481
497.60156	8705
497.85974	8741
498.11795	8794
498.37613	8598
498.63431	8725
498.89249	8530
499.15067	8759
499.40884	8836
499.66702	8535
499.92517	8535
500.18335	8719
500.44153	8701
500.69968	8600
500.95782	8536
501.216	8431
501.47415	8522
501.7323	8442
501.99045	8654
502.24857	8654
502.50671	8559
502.76486	8761
503.02298	8418
503.28113	8448
503.53925	8559
503.79739	8560
504.05551	8443
504.31363	8589
504.57175	8626
504.82986	8548
505.08798	8421
505.34607	8552
505.60419	8374
505.86227	8578
506.12039	8446
506.37848	8382
506.63657	8555
506.89465	8455
507.15277	8464
507.41083	8688
507.66891	8557
507.927	8366
508.18509	8234
508.44315	8362
508.70123	8306
508.95929	8387
509.21735	8437
509.4754	8387
509.73346	8328
509.99152	8443
510.24957	8411
510.50763	8266
510.76569	8375
511.02371	8455
511.28174	8419
511.53979	8445
511.79782	8426
512.05585	8162
512.3139	8238
512.5719	8439
512.82996	8283
513.08795	8038
513.34595	8407
513.60394	8166
513.862	8364
514.12	8335
514.37799	8176
514.63599	8306
514.89398	8228
515.15198	8000
515.40997	8295
515.66797	7952
515.92596	8221
516.1839	8170
516.44189	7992
516.69989	8189
516.95782	8024
517.21582	8017
517.47375	8028
517.73175	8072
517.98969	7973
518.24762	7979
518.50562	7994
518.76355	8143
519.02148	7971
519.27942	7906
519.53735	7775
519.79529	8023
520.05322	7939
520.31116	7827
520.56909	8051
520.82703	7817
521.0849	7879
521.34283	7839
521.60077	7806
521.85864	7712
522.11658	7710
522.37445	7921
522.63239	7672
522.89026	7809
523.14819	7643
523.40607	7625
523.66394	7806
523.92181	7689
524.17969	7731
524.43756	7603
524.69543	7595
524.95331	7573
525.21118	7576
525.46906	7513
525.72693	7493
525.98474	7514
526.24261	7491
526.50049	7395
526.7583	7357
527.01617	7473
527.27399	7522
527.5318	7256
527.78967	7366
528.04749	7364
528.3053	7399
528.56311	7149
528.82098	7373
529.0788	7409
529.33661	7188
529.59442	7287
529.85217	7201
530.10999	7219
530.3678	7116
530.62561	7338
530.88336	7183
531.14117	7249
531.39893	7185
531.65674	7177
531.91449	7104
532.1723	7008
532.43005	7080
532.68781	6941
532.94556	6925
533.20337	6933
533.46112	6921
533.71887	7097
533.97662	6857
534.23438	6918
534.49207	6832
534.74982	6825
535.00757	6898
535.26532	6906
535.52301	6985
535.78076	7004
536.03845	6815
536.2962	6795
536.55389	6840
536.81158	6695
537.06934	6608
537.32703	6680
537.58472	6598
537.84241	6559
538.1001	6549
538.35779	6558
538.61548	6559
538.87317	6472
539.13086	6612
539.38849	6527
539.64618	6583
539.90387	6669
540.1615	6553
540.41919	6421
540.67682	6432
540.93445	6412
541.19214	6332
541.44977	6406
541.7074	6168
541.96503	6524
542.22266	6334
542.48029	6225
542.73792	6271
542.99554	6110
543.25317	6310
543.5108	6177
543.76837	6217
544.026	6060
544.28363	6142
544.5412	6127
544.79883	6207
545.0564	6165
545.31396	6047
545.57153	5974
545.82916	6101
546.08673	6088
546.3443	6117
546.60187	6028
546.85944	6101
547.117	5985
547.37457	5824
547.63208	5896
547.88965	5990
548.14722	5963
548.40472	5951
548.66229	5990
548.9198	5805
549.17737	5939
549.43488	5718
549.69238	5685
549.94989	5866
550.20746	5780
550.46497	5763
550.72247	5651
550.97998	5697
551.23749	5701
551.49493	5792
551.75244	5709
552.00995	5610
552.2674	5543
552.5249	5607
552.78235	5471
553.03986	5450
553.2973	5586
553.55481	5493
553.81226	5538
554.0697	5511
554.32715	5547
554.58459	5445
554.84204	5449
555.09949	5403
555.35693	5513
555.61438	5432
555.87177	5284
556.12921	5472
556.38666	5409
556.64404	5310
556.90149	5313
557.15887	5366
557.41626	5179
557.67371	5153
557.93109	5201
558.18848	5258
558.44586	5298
558.70325	5185
558.96063	5196
559.21802	5278
559.4754	5116
559.73273	5348
559.99011	5018
560.2475	5051
560.50482	5180
560.76221	5026
561.01953	5017
561.27686	4961
561.53424	5042
561.79156	5107
562.04889	5008
562.30621	4988
562.56354	4855
562.82086	4982
563.07819	5049
563.33551	4868
563.59277	4842
563.8501	5019
564.10742	4796
564.36469	4842
564.62201	4833
564.87927	4814
565.13654	4783
565.39386	4642
565.65112	4662
565.90839	4770
566.16565	4638
566.42291	4702
566.68018	4884
566.93744	4783
567.19464	4632
567.4519	4537
567.70917	4625
567.96637	4630
568.22363	4572
568.48083	4572
568.7381	4523
568.9953	4605
569.2525	4407
569.5097	4471
569.76691	4463
570.02411	4548
570.28131	4526
570.53851	4502
570.79572	4508
571.05292	4435
571.31006	4295
571.56726	4328
571.8244	4380
572.0816	4230
572.33875	4321
572.59589	4248
572.85309	4406
573.11023	4214
573.36737	4242
573.62451	4273
573.88165	4291
574.13879	4226
574.39587	4193
574.65302	4168
574.91016	4178
575.16724	4215
575.42438	4178
575.68146	4044
575.9386	4072
576.19568	4126
576.45276	4005
576.70984	4030
576.96692	4013
577.224	3987
577.48108	3908
577.73816	3951
577.99524	4041
578.25232	3956
578.50934	3865
578.76642	3893
579.02344	3851
579.28052	3865
579.53754	4034
579.79462	3854
580.05164	3926
580.30865	3821
580.56567	3808
580.82269	3823
581.07971	3761
581.33673	3795
581.59369	3856
581.85071	3898
582.10773	3731
582.36469	3636
582.6217	3710
582.87866	3806
583.13562	3718
583.39264	3665
583.6496	3760
583.90656	3658
584.16351	3619
584.42047	3562
584.67743	3666
584.93439	3710
585.19128	3686
585.44824	3614
585.70514	3695
585.9621	3521
586.21899	3568
586.47595	3486
586.73285	3511
586.98975	3560
587.24664	3541
587.50354	3409
587.76044	3339
588.01733	3327
588.27423	3404
588.53113	3437
588.78796	3402
589.04486	3488
589.3017	3301
589.55859	3438
589.81543	3330
590.07233	3350
590.32916	3358
590.586	3302
590.84283	3274
591.09967	3344
591.35651	3284
591.61334	3248
591.87012	3201
592.12695	3250
592.38373	3240
592.64056	3143
592.89734	3178
593.15417	3233
593.41095	3101
593.66772	3156
593.9245	3094
594.18127	3178
594.43805	3173
594.69482	3022
594.9516	3087
595.20837	3015
595.46509	3148
595.72186	2996
595.97858	3046
596.23535	3145
596.49207	3036
596.74878	2990
597.00555	3012
597.26227	2929
597.51898	2957
597.7757	2930
598.03235	2903
598.28906	2928
598.54578	2944
598.80243	2989
599.05914	2877
599.3158	2920
599.57251	2868
599.82916	2795
600.08582	2914
600.34247	2884
600.59918	2855
600.85583	2826
601.11243	2767
601.36908	2792
601.62573	2800
601.88239	2872
602.13898	2664
602.39563	2656
602.65222	2713
602.90881	2627
603.16547	2664
603.42206	2746
603.67865	2645
603.93524	2788
604.19183	2654
604.44843	2587
604.70496	2654
604.96155	2651
605.21814	2661
605.47467	2522
605.73126	2555
605.98779	2688
606.24432	2571
606.50085	2574
606.75739	2601
607.01392	2471
607.27045	2539
607.52698	2531
607.78351	2585
608.04004	2522
608.29651	2486
608.55304	2488
608.80951	2443
609.06604	2452
609.32251	2502
609.57898	2413
609.83545	2398
610.09192	2444
610.34839	2479
610.60486	2392
610.86133	2424
611.11774	2375
611.37421	2352
611.63062	2415
611.88708	2364
612.14349	2360
612.39996	2410
612.65637	2403
612.91278	2351
613.16919	2387
613.4256	2373
613.68201	2338
613.93835	2346
614.19476	2328
614.45117	2295
614.70752	2274
614.96387	2261
615.22028	2268
615.47662	2276
615.73297	2281
615.98932	2232
616.24567	2185
616.50201	2288
616.75836	2156
617.01471	2166
617.271	2192
617.52734	2136
617.78363	2215
618.03998	2143
618.29626	2089
618.55255	2059
618.80884	2129
619.06512	2201
619.32141	2039
619.5777	2081
619.83398	2101
620.09027	2049
620.3465	2111
620.60278	2061
620.85901	2046
621.1153	2082
621.37152	2107
621.62775	2137
621.88397	2104
622.1402	2053
622.39642	2040
622.65265	1966
622.90887	2021
623.16504	1966
623.42126	2071
623.67743	2048
623.93365	2011
624.18982	2008
624.44598	1931
624.70215	1940
624.95831	2046
625.21448	1958
625.47064	1958
625.72681	1914
625.98291	1950
626.23907	1962
626.49524	1855
626.75134	1954
627.00745	1866
627.26355	1875
627.51971	1869
627.77582	1956
628.03192	1912
628.28796	1893
628.54407	1911
628.80017	1869
629.05627	1785
629.31232	1765
629.56836	1777
629.82446	1808
630.08051	1784
630.33655	1812
630.59259	1795
630.84863	1778
631.10468	1740
631.36072	1743
631.6167	1789
631.87274	1825
632.12878	1764
632.38477	1793
632.64075	1730
632.89679	1715
633.15277	1664
633.40875	1653
633.66473	1651
633.92072	1670
634.17664	1711
634.43262	1690
634.6886	1707
634.94452	1674
635.2005	1654
635.45642	1636
635.71234	1597
635.96826	1607
636.22418	1721
636.4801	1698
636.73602	1660
636.99194	1568
637.24786	1673
637.50372	1595
637.75964	1625
638.0155	1608
638.27136	1598
638.52722	1583
638.78314	1556
639.039	1539
639.29486	1530
639.55066	1580
639.80652	1539
640.06238	1505
640.31818	1556
640.57404	1478
640.82983	1630
641.08563	1520
641.34149	1490
641.59729	1518
641.85309	1463
642.10889	1539
642.36462	1507
642.62042	1506
642.87622	1564
643.13196	1514
643.38776	1419
643.64349	1465
643.89923	1413
644.15497	1480
644.41071	1460
644.66644	1447
644.92218	1436
645.17792	1497
645.43359	1428
645.68933	1408
645.94507	1351
646.20074	1417
646.45642	1405
646.7121	1415
646.96777	1429
647.22345	1355
647.47913	1349
647.7348	1385
647.99048	1401
648.24609	1416
648.50177	1393
648.75739	1376
649.01306	1319
649.26868	1311
649.52429	1273
649.77991	1232
650.03552	1341
650.29114	1322
650.54669	1333
650.80231	1307
651.05792	1280
651.31348	1223
651.56903	1275
651.82465	1281
652.0802	1281
652.33575	1280
652.59131	1330
652.84686	1309
653.10236	1266
653.35791	1226
653.61346	1249
653.86896	1179
654.12445	1238
654.38	1218
654.6355	1202
654.89099	1246
655.14648	1184
655.40198	1230
655.65741	1234
655.9129	1176
656.1684	1195
656.42383	1212
656.67926	1148
656.93475	1207
657.19019	1241
657.44562	1177
657.70105	1218
657.95648	1154
658.21191	1131
658.46729	1080
658.72272	1166
658.97809	1115
659.23352	1168
659.48889	1126
659.74426	1125
659.99963	1112
660.255	1129
660.51038	1134
660.76575	1157
661.02106	1093
661.27643	1128
661.53174	1113
661.78711	1089
662.04242	1101
662.29773	1065
662.55304	1046
662.80835	1072
663.06366	1078
663.31897	1005
663.57428	1064
663.82953	1035
664.08484	1028
664.34009	1075
664.59534	1031
664.85059	989
665.10583	1049
665.36108	1023
665.61633	1053
665.87158	1031
666.12677	1062
666.38202	1041
666.63721	1014
666.89246	995
667.14764	1012
667.40283	969
667.65802	1062
667.91321	1007
668.1684	940
668.42358	956
668.67871	1036
668.9339	1023
669.18903	1002
669.44415	959
669.69934	1035
669.95447	963
670.20959	996
670.46466	975
670.71979	943
670.97491	943
671.22998	928
671.48511	968
671.74017	946
671.9953	941
672.25037	905
672.50543	982
672.7605	931
673.0155	905
673.27057	960
673.52563	926
673.78064	898
674.03571	923
674.29071	936
674.54572	881
674.80072	900
675.05573	962
675.31073	899
675.56573	932
675.82074	925
676.07568	913
676.33069	899
676.58563	902
676.84058	884
677.09552	872
677.35046	877
677.60541	893
677.86035	820
678.1153	866
678.37024	842
678.62512	884
678.88	868
679.13495	904
679.38983	844
679.64471	869
679.8996	832
680.15448	804
680.40936	847
680.66418	872
680.91907	817
681.17389	891
681.42871	882
681.68359	793
681.93842	857
682.19324	824
682.44806	818
682.70282	768
682.95764	812
683.21246	751
683.46722	781
683.72205	812
683.97681	809
684.23157	779
684.48633	837
684.74109	774
684.99585	811
685.25055	784
685.50531	755
685.76001	759
686.01477	793
686.26947	776
686.52417	766
686.77887	755
687.03357	778
687.28827	767
687.54297	789
687.79761	764
688.05231	735
688.30695	806
688.56158	710
688.81628	732
689.07092	732
689.32556	760
689.58014	729
689.83478	744
690.08942	743
690.34399	716
690.59863	740
690.85321	750
691.10779	730
691.36237	745
691.61694	693
691.87152	717
692.1261	716
692.38062	686
692.63519	729
692.88971	677
693.14423	680
693.39874	704
693.65326	719
693.90778	685
694.16229	762
694.41681	722
694.67133	696
694.92578	685
695.18024	670
695.43475	688
695.68921	704
695.94366	688
696.19812	665
696.45258	668
696.70697	678
696.96143	694
697.21582	657
697.47028	695
697.72467	674
697.97906	669
698.23346	636
698.48785	656
698.74225	654
698.99658	660
699.25098	679
699.50531	687
699.7597	691
700.01404	659
700.26837	674
700.52271	640
700.77704	639
701.03137	633
701.28564	645
701.53998	642
701.79425	613
702.04858	668
702.30286	614
702.55713	628
702.8114	608
703.06567	636
703.31989	622
703.57416	603
703.82843	599
704.08264	641
704.33685	636
704.59106	654
704.84528	623
705.09949	646
705.3537	579
705.60791	609
705.86206	642
706.11627	574
706.37042	582
706.62457	593
706.87878	591
707.13293	574
707.38702	618
707.64117	564
707.89532	587
708.14941	536
708.40356	596
708.65765	605
708.91174	557
709.16583	606
709.41992	540
709.67401	611
709.9281	575
710.18213	584
710.43622	606
710.69025	576
710.94427	586
711.19836	569
711.45239	575
711.70636	593
711.96039	544
712.21442	565
712.46838	541
712.72241	589
712.97638	573
713.23035	588
713.48431	541
713.73828	580
713.99225	536
714.24622	547
714.50012	513
714.75409	540
715.008	555
715.2619	550
715.51581	525
715.76971	559
716.02362	538
716.27753	539
716.53143	494
716.78528	523
717.03912	555
717.29303	544
717.54688	541
717.80072	497
718.05457	509
718.30841	535
718.56219	499
718.81604	531
719.06982	535
719.32361	496
719.57745	529
719.83124	521
720.08502	527
720.33875	548
720.59253	560
720.84631	526
721.10004	535
721.35376	518
721.60754	502
721.86127	544
722.11499	499
722.36871	542
722.62238	532
722.8761	495
723.12976	518
723.38348	513
723.63715	533
723.89081	511
724.14447	563
724.39813	509
724.65179	530
724.9054	512
725.15906	496
725.41266	516
725.66626	474
725.91992	515
726.17352	520
726.42706	481
726.68066	493
726.93427	461
727.18781	502
727.44141	482
727.69495	521
727.94849	522
728.20203	477
728.45557	506
728.70911	478
728.96259	510
729.21613	487
729.4696	494
729.72314	509
729.97662	502
730.2301	494
730.48358	511
730.73706	463
730.99048	488
731.24396	504
731.49738	480
731.75079	453
732.00427	490
732.25769	493
732.51105	443
732.76447	450
733.01788	479
733.27124	466
733.52466	473
733.77802	479
734.03137	447
734.28473	480
734.53809	447
734.79144	469
735.0448	470
735.2981	458
735.55145	447
735.80475	461
736.05804	465
736.31134	489
736.56464	445
736.81793	446
737.07117	462
737.32446	477
737.5777	445
737.83093	459
738.08423	437
738.33746	427
738.59064	439
738.84387	459
739.09711	441
739.35028	448
739.60352	454
739.85669	434
740.10986	450
740.36304	440
740.61621	464
740.86938	444
741.1225	412
741.37567	423
741.62878	453
741.8819	426
742.13501	453
742.38812	389
742.64124	441
742.89435	417
743.1474	456
743.40051	474
743.65356	421
743.90662	444
744.15967	426
744.41272	436
744.66577	443
744.91882	428
745.17181	401
745.42487	415
745.67786	421
745.93085	444
746.18384	413
746.43683	420
746.68982	401
746.94275	425
747.19574	415
747.44867	415
747.7016	412
747.95453	430
748.20746	431
748.46039	418
748.71332	411
748.96625	418
749.21912	407
749.47198	446
749.72491	387
749.97778	412
750.23059	415
750.48346	405
750.73633	423
750.98914	399
751.242	419
751.49481	401
751.74762	401
752.00043	391
752.25323	400
752.50604	398
752.75879	395
753.0116	403
753.26434	395
753.51715	423
753.7699	417
754.02264	395
754.27533	400
754.52808	409
754.78082	395
755.03351	417
755.28619	403
755.53888	377
755.79156	395
756.04425	393
756.29694	396
756.54962	383
756.80225	434
757.05493	366
757.30756	387
757.56018	392
757.81281	401
758.06543	407
758.31799	397
758.57062	396
758.82318	381
759.07581	379
759.32837	381
759.58093	400
759.8335	397
760.086	376
760.33856	367
760.59106	376
760.84363	395
761.09613	366
761.34863	407
761.60114	376
761.85364	387
762.10608	379
762.35858	359
762.61102	390
762.86346	399
763.11597	383
763.36841	392
763.62079	374
763.87323	412
764.12567	371
764.37805	388
764.63043	369
764.88287	395
765.13525	372
765.38763	374
765.63995	365
765.89233	386
766.14465	369
766.39703	371
766.64935	412
766.90167	367
767.15399	371
767.40631	361
767.65857	365
767.91089	368
768.16315	381
768.41547	363
768.66772	397
768.91998	384
769.17218	379
769.42444	396
769.6767	387
769.92889	358
770.18109	372
770.43335	375
770.68555	361
770.93768	389
771.18988	375
771.44208	337
771.69421	363
771.94641	382
772.19855	363
772.45068	372
772.70282	361
772.9549	360
773.20703	374
773.45911	361
773.71124	367
773.96332	347
774.21539	374
774.46747	368
774.71954	336
774.97156	378
775.22363	352
775.47565	366
775.72772	378
775.97974	379
776.23175	379
776.4837	360
776.73572	347
776.98773	377
777.23969	353
777.49164	355
777.74359	373
777.99554	351
778.2475	347
778.49945	358
778.75134	376
779.0033	364
779.25519	363
779.50708	340
779.75897	360
780.01086	358
780.2627	351
780.51459	359
780.76642	354
781.01831	353
781.27014	357
781.52197	358
781.7738	337
782.02557	361
782.2774	372
782.52917	353
782.78101	333
783.03278	333
783.28455	353
783.53625	359
783.78802	366
784.03979	334
784.2915	354
784.54321	373
784.79498	344
785.04669	371
785.29834	347
785.55005	344
785.80176	344
786.05341	346
786.30505	347
786.5567	354
786.80835	347
787.06	342
787.31165	336
787.56323	317
787.81488	339
788.06647	347
788.31805	342
788.56964	351
788.82123	362
789.07281	348
789.32434	351
789.57593	333
789.82745	350
790.07898	352
790.33051	340
790.58203	343
790.8335	357
791.08502	338
791.33649	353
791.58795	348
791.83948	342
792.09088	323
792.34235	357
792.59381	361
792.84521	343
793.09668	319
793.34808	323
793.59949	316
793.85089	356
794.10229	335
794.35364	333
794.60504	340
794.85638	343
795.10773	358
795.35907	350
795.61041	342
795.86176	355
796.1131	347
796.36438	323
796.61566	326
796.86694	366
797.11823	346
797.36951	339
797.62079	334
797.87207	351
798.12329	348
798.37451	324
798.62573	364
798.87695	347
799.12817	334
799.37939	338
799.63055	338
799.88177	347
800.13293	336
800.38409	345
800.63525	320
800.88641	339
801.13751	352
801.38867	328
801.63977	344
801.89087	328
802.14197	338
802.39307	334
802.64417	343
802.89526	329
803.1463	332
803.39734	336
803.64844	336
803.89948	327
804.15045	339
804.40149	301
804.65253	343
804.9035	341
805.15448	343
805.40546	345
805.65643	323
805.90741	331
806.15839	334
806.4093	329
806.66028	316
806.91119	333
807.16211	344
807.41302	333
807.66388	305
807.91479	319
808.16565	310
808.41656	316
808.66742	310
808.91827	306
809.16913	325
809.41992	313
809.67078	354
809.92157	318
810.17236	335
810.42316	337
810.67395	341
810.92474	336
811.17554	342
811.42627	346
811.67706	321
811.9278	336
812.17853	337
812.42926	318
812.67993	339
812.93066	308
813.18134	322
813.43201	347
813.68268	330
813.93335	326
814.18402	346
814.43469	306
814.6853	334
814.93597	322
815.18658	338
815.43719	320
815.68781	326
815.93835	325
816.18896	319
816.43951	338
816.69012	333
816.94067	322
817.19122	329
817.44171	337
817.69226	319
817.94275	327
818.1933	322
818.44379	327
818.69427	301
818.94476	316
819.19519	329
819.44568	307
819.69611	311
819.94659	328
820.19702	327
820.44745	325
820.69781	325
820.94824	330
821.19861	314
821.44904	321
821.6994	308
821.94977	319
822.20013	317
822.45044	315
822.70081	320
822.95111	315
823.20142	335
823.45172	311
823.70203	325
823.95233	333
824.20264	328
824.45288	312
824.70313	320
824.95337	312
825.20361	316
825.45386	297
825.7041	309
825.95428	313
826.20453	321
826.45471	320
826.7049	348
826.95508	339
827.2052	301
827.45538	323
827.70551	324
827.95563	300
828.20575	300
828.45587	317
828.70599	327
828.95612	338
829.20618	315
829.45624	333
829.7063	331
829.95636	305
830.20642	325
830.45648	323
830.70648	319
830.95654	315
831.20654	342
831.45654	308
831.70654	302
831.95648	326
832.20648	309
832.45642	297
832.70636	307
832.9563	304
833.20624	324
833.45618	316
833.70612	333
833.95599	310
834.20587	329
834.45575	311
834.70563	315
834.95551	316
835.20532	299
835.4552	321
835.70502	307
835.95483	320
836.20465	329
836.45447	318
836.70428	308
836.95404	294
837.2038	294
837.45361	319
837.70337	312
837.95306	318
838.20282	315
838.45258	324
838.70227	320
838.95197	306
839.20166	308
839.45135	310
839.70105	334
839.95068	335
840.20032	340
840.45001	323
840.69965	302
840.94928	324
841.19885	312
841.44849	324
841.69806	316
841.94763	332
842.19727	316
842.44678	331
842.69635	333
842.94592	320
843.19543	281
843.44495	335
843.69446	300
843.94397	300
844.19348	347
844.44299	330
844.69244	323
844.94189	310
845.19141	329
845.4408	319
845.69025	341
845.9397	320
846.18909	301
846.43854	320
846.68793	301
846.93732	297
847.18665	343
847.43604	301
847.68536	309
847.93475	307
848.18408	314
848.43341	309
848.68274	321
848.93201	330
849.18134	334
849.4306	328
849.67987	309
849.92914	303
850.17841	305
850.42767	302
850.67688	303
850.92609	325
851.17529	299
851.4245	329
851.67371	305
851.92291	302
852.17206	297
852.42126	319
852.67041	336
852.91956	295
853.1687	308
853.41779	348
853.66693	315
853.91602	304
854.1651	327
854.41418	313
854.66327	341
854.91229	306
855.16138	342
855.4104	320
855.65942	295
