Date and Time:                Sun Apr 14 16:14:07.912 2024
Software Version:             4.30.30000.0
Temperature (C):              -90
Model:                        DU971P_UVB
Data Type:                    Counts
Acquisition Mode:             Single Scan
Trigger Mode:                 Internal
Exposure Time (secs):         1
Readout Mode:                 Full Vertical Binning
Horizontal binning:           1
Extended Dynamic Range:       off
Horizontally flipped:         false
Vertical Shift Speed (usecs): 9.68
Pixel Readout Rate (MHz):     3
Baseline Clamp:               ON
Clock Amplitude:              Normal
Output Amplifier:             Conventional
Serial Number:                20367
Pre-Amplifier Gain:           4x
Spurious Noise Filter Mode:   No Filter
Photon counted:               false
Data Averaging Filter Mode:   No Filter
SR193i:
Serial Number:                SR-2646
Wavelength (nm):              650
Grating Groove Density (l/mm):300
Grating Blaze:                500nm
Input Side Slit Width (um):   1000



437.86981	12616
438.12854	13439
438.3873	14164
438.64606	15013
438.90482	16078
439.16354	16751
439.4223	17174
439.68103	17979
439.93979	18328
440.19852	18880
440.45724	19826
440.716	20249
440.97473	21198
441.23346	21806
441.49219	22475
441.75092	23024
442.00964	24190
442.26837	24584
442.5271	25584
442.78583	26074
443.04456	26341
443.30325	27054
443.56198	27581
443.82068	28475
444.07941	29298
444.3381	28933
444.59683	30115
444.85553	30836
445.11423	31504
445.37292	32096
445.63165	32301
445.89035	33084
446.14905	33684
446.40771	33781
446.66641	34617
446.92511	35264
447.18381	35578
447.4425	36010
447.70117	36392
447.95987	36900
448.21854	37478
448.47723	38143
448.7359	37930
448.99457	38640
449.25327	38799
449.51193	39133
449.7706	39318
450.02927	39192
450.28793	39376
450.5466	39101
450.80527	38696
451.0639	38008
451.32257	36832
451.58124	36158
451.83987	35512
452.09854	34694
452.35718	33943
452.61584	33631
452.87448	32559
453.13312	32001
453.39175	31418
453.65042	30743
453.90906	30532
454.16769	30110
454.42633	29481
454.68494	29078
454.94357	28817
455.20221	28575
455.46082	28023
455.71945	27469
455.97809	26957
456.23669	26969
456.4953	26543
456.75394	26564
457.01254	26011
457.27115	25517
457.52975	25515
457.78836	25461
458.04697	25022
458.30557	24920
458.56418	24820
458.82275	24735
459.08136	24686
459.33997	24542
459.59854	24295
459.85715	24743
460.11572	24147
460.3743	24229
460.6329	23911
460.89148	24158
461.15005	24101
461.40863	24017
461.66721	24092
461.92578	24201
462.18433	23959
462.4429	24177
462.70148	24339
462.96002	24126
463.2186	24050
463.47714	24228
463.73572	24165
463.99426	24143
464.25281	24318
464.51135	24262
464.7699	24313
465.02844	24634
465.28699	24423
465.54553	24403
465.80408	24958
466.06259	25123
466.32114	25033
466.57968	25469
466.8382	25513
467.09671	25720
467.35526	25786
467.61377	26086
467.87228	26145
468.1308	26361
468.38931	26234
468.64783	26637
468.90634	26582
469.16486	26931
469.42334	27446
469.68185	27535
469.94034	27630
470.19885	27617
470.45734	28158
470.71582	28280
470.97433	28553
471.23282	28253
471.4913	28601
471.74979	29043
472.00827	29013
472.26672	29378
472.52521	29109
472.78369	29808
473.04214	29930
473.30063	30221
473.55908	30222
473.81757	30250
474.07602	30396
474.33447	30520
474.59293	30975
474.85138	30955
475.10983	31594
475.36829	31616
475.62674	31885
475.88516	31885
476.14362	31991
476.40204	32301
476.66049	32334
476.91891	32213
477.17734	32433
477.43579	32615
477.69421	32914
477.95264	32906
478.21106	33037
478.46945	32984
478.72787	32688
478.9863	33093
479.24469	33057
479.50311	33546
479.76151	33425
480.01993	33300
480.27832	33734
480.53671	33644
480.7951	33515
481.0535	33526
481.31189	33429
481.57028	33378
481.82867	33918
482.08704	34007
482.34543	33718
482.60379	33958
482.86218	33801
483.12054	33628
483.37891	33770
483.63727	34072
483.89563	33793
484.15399	34286
484.41235	34218
484.67072	34009
484.92908	34313
485.18741	34164
485.44577	34340
485.7041	34366
485.96243	34256
486.22079	34462
486.47913	34482
486.73746	33992
486.99579	34248
487.25412	34320
487.51242	33690
487.77075	34229
488.02908	33914
488.28738	34068
488.54572	34113
488.80402	34269
489.06232	34469
489.32062	34454
489.57892	34360
489.83722	34145
490.09552	34277
490.35382	33732
490.61212	34382
490.87039	33884
491.12869	34063
491.38696	34215
491.64526	34308
491.90353	34486
492.1618	34209
492.42007	34521
492.67834	34372
492.93661	34048
493.19489	34100
493.45313	34284
493.7114	34084
493.96964	34197
494.22791	34119
494.48615	34106
494.74438	34320
495.00262	33911
495.26086	34306
495.5191	33939
495.77734	34004
496.03558	34246
496.29379	34244
496.55203	34036
496.81024	34296
497.06848	34265
497.32669	34072
497.5849	34071
497.84311	34124
498.10132	33998
498.35953	33700
498.61771	34171
498.87592	34248
499.13412	34062
499.3923	33761
499.65048	34021
499.90869	34207
500.16687	34446
500.42505	33908
500.68323	33588
500.94141	33827
501.19958	34158
501.45773	33846
501.71591	34095
501.97406	34081
502.23224	33694
502.49039	34110
502.74854	33849
503.00668	33729
503.26483	34110
503.52298	33820
503.78113	33576
504.03925	33712
504.29739	33628
504.55551	33639
504.81366	33530
505.07178	33684
505.3299	33654
505.58801	33753
505.84613	33714
506.10425	33454
506.36237	33325
506.62045	33389
506.87857	33154
507.13666	33562
507.39478	33423
507.65286	33446
507.91095	33477
508.16904	33561
508.42712	33495
508.68521	33397
508.94327	33058
509.20135	32954
509.45941	33437
509.7175	33283
509.97556	32984
510.23361	32972
510.49167	33163
510.74973	32804
511.00778	32879
511.26584	33108
511.5239	33316
511.78192	33062
512.03998	32783
512.29797	32991
512.55603	32577
512.81409	32789
513.07208	32701
513.33014	32498
513.58813	32717
513.84613	32288
514.10419	32249
514.36218	32662
514.62018	32440
514.87817	31921
515.13617	32376
515.39417	32129
515.65216	32272
515.91016	31921
516.16815	31857
516.42615	32214
516.68408	32527
516.94208	32205
517.20007	31940
517.45801	32280
517.716	31924
517.97394	31566
518.23193	31458
518.48987	31733
518.7478	31669
519.0058	31763
519.26373	31164
519.52167	31429
519.7796	31237
520.03754	31240
520.29547	30791
520.55341	30911
520.81134	31232
521.06927	30818
521.32715	30805
521.58508	31395
521.84302	30646
522.10089	31069
522.35883	30732
522.6167	30580
522.87463	30429
523.13251	30429
523.39038	30455
523.64825	30269
523.90619	30719
524.16406	30214
524.42194	30095
524.67981	30101
524.93768	30110
525.19556	29527
525.45337	29665
525.71124	29900
525.96912	29765
526.22699	30019
526.4848	30042
526.74268	29597
527.00049	29664
527.25836	29452
527.51617	29183
527.77399	29032
528.0318	28930
528.28967	29213
528.54749	29212
528.8053	28975
529.06311	28891
529.32092	28846
529.57874	29043
529.83655	28291
530.0943	28502
530.35211	28353
530.60992	28547
530.86768	28295
531.12549	28324
531.38324	28333
531.64105	28214
531.8988	28016
532.15656	28039
532.41437	27990
532.67212	27920
532.92987	27561
533.18762	27570
533.44537	27683
533.70313	27565
533.96088	27676
534.21857	27271
534.47632	27336
534.73407	27175
534.99182	27459
535.24951	26938
535.50726	27036
535.76495	26938
536.02264	27028
536.2804	26923
536.53809	26981
536.79578	26505
537.05347	26813
537.31116	26976
537.56885	26639
537.82654	26674
538.08423	26286
538.34192	26349
538.59961	26334
538.85724	26427
539.11493	25870
539.37262	26135
539.63025	25960
539.88794	26045
540.14557	25712
540.4032	25928
540.66089	25810
540.91852	25630
541.17615	25251
541.43378	25577
541.69141	25602
541.94904	25373
542.20667	25036
542.46429	25149
542.72186	24997
542.97949	25160
543.23712	24734
543.49469	24962
543.75232	25028
544.00989	24811
544.26752	24525
544.52509	24937
544.78265	24512
545.04022	24707
545.29779	24583
545.55542	24110
545.81293	24530
546.0705	24330
546.32806	24008
546.58563	24325
546.8432	23971
547.10071	24011
547.35828	24095
547.61584	23937
547.87335	24078
548.13086	23761
548.38843	23974
548.64594	23714
548.90344	23798
549.16095	23760
549.41846	23468
549.67596	23564
549.93347	23204
550.19098	23299
550.44849	23309
550.70599	23547
550.96344	23323
551.22095	23620
551.47845	23314
551.7359	23193
551.99335	23309
552.25085	22892
552.5083	23122
552.76575	22863
553.02319	23129
553.28064	23032
553.53809	23081
553.79553	23075
554.05298	22978
554.31042	22991
554.56787	23050
554.82526	22830
555.0827	22981
555.34015	22673
555.59753	22421
555.85492	22500
556.11237	22615
556.36975	22531
556.62714	22833
556.88452	22577
557.14191	22333
557.39929	22796
557.65668	22709
557.91406	22386
558.17145	22496
558.42883	22315
558.68616	22216
558.94354	22423
559.20087	22260
559.45825	22154
559.71558	22085
559.9729	21705
560.23029	22021
560.48761	21922
560.74493	22178
561.00226	21998
561.25958	22044
561.51691	22252
561.77423	21984
562.03149	21839
562.28882	21876
562.54614	22038
562.80341	21734
563.06067	21672
563.31799	21810
563.57526	21782
563.83252	21643
564.08984	21719
564.34711	21839
564.60437	21763
564.86163	21823
565.1189	21382
565.3761	21422
565.63336	21477
565.89063	21550
566.14783	21548
566.40509	21651
566.66229	21353
566.91956	21404
567.17676	21181
567.43396	21227
567.69116	21262
567.94843	21494
568.20563	20962
568.46283	21500
568.71997	21293
568.97717	21519
569.23438	21461
569.49158	21230
569.74872	21362
570.00592	21061
570.26306	20999
570.52026	21280
570.7774	21213
571.03455	20767
571.29169	20870
571.54883	20687
571.80597	20672
572.06311	20775
572.32025	20836
572.57739	20808
572.83453	20547
573.09161	20650
573.34875	20522
573.60583	20582
573.86298	20566
574.12006	20493
574.37714	20217
574.63422	20504
574.89136	20208
575.14844	20423
575.40552	20515
575.6626	20584
575.91962	20320
576.1767	20145
576.43378	20066
576.6908	20206
576.94788	20093
577.2049	20382
577.46198	20084
577.71899	19944
577.97601	19806
578.23303	19805
578.49005	19839
578.74707	19960
579.00409	19738
579.26111	19750
579.51813	19746
579.77515	19598
580.0321	19626
580.28912	19713
580.54608	19669
580.8031	19286
581.06006	19425
581.31702	19281
581.57397	19452
581.83093	19364
582.08789	19393
582.34485	19173
582.60181	19116
582.85876	19104
583.11566	19242
583.37262	19224
583.62958	19152
583.88647	18990
584.14337	18837
584.40033	18801
584.65723	18708
584.91412	18964
585.17102	18916
585.42792	18466
585.68481	18783
585.94171	18894
586.19861	18501
586.45544	18716
586.71234	18548
586.96918	18517
587.22607	18357
587.48291	18175
587.73981	18358
587.99664	18188
588.25348	18329
588.51031	18147
588.76715	18197
589.02399	17869
589.28082	18050
589.5376	18072
589.79443	17822
590.05127	18056
590.30804	17613
590.56482	17643
590.82166	17614
591.07843	17372
591.33521	17548
591.59198	17427
591.84875	17316
592.10553	17356
592.3623	17011
592.61908	17182
592.87579	17153
593.13257	16994
593.38934	17242
593.64606	16949
593.90277	16984
594.15955	16696
594.41626	16657
594.67297	16918
594.92969	16638
595.1864	16739
595.44312	16815
595.69983	16452
595.95648	16570
596.2132	16294
596.46991	16336
596.72656	16328
596.98322	16513
597.23993	16390
597.49658	16467
597.75323	15856
598.00989	15993
598.26654	16201
598.52319	16004
598.77985	16159
599.0365	16133
599.29309	15967
599.54974	15797
599.80634	15897
600.06299	15554
600.31958	15547
600.57617	15568
600.83276	15598
601.08936	15745
601.34595	15193
601.60254	15185
601.85913	15434
602.11572	15440
602.37225	15414
602.62885	15444
602.88544	15314
603.14197	15225
603.3985	15172
603.65503	15149
603.91162	14859
604.16815	14980
604.42468	15128
604.68121	14678
604.93768	14918
605.19421	14712
605.45074	14572
605.70721	14813
605.96375	14606
606.22021	14643
606.47668	14698
606.73322	14537
606.98969	14428
607.24615	14368
607.50262	14447
607.75909	14454
608.0155	14422
608.27197	14317
608.52844	14317
608.78485	14150
609.04132	14235
609.29773	13959
609.55414	14000
609.81055	13870
610.06696	14076
610.32336	13875
610.57977	14007
610.83618	13848
611.09259	13497
611.349	13768
611.60535	13658
611.86176	13602
612.1181	13661
612.37445	13438
612.63086	13600
612.88721	13486
613.14355	13577
613.3999	13667
613.65625	13373
613.91254	13509
614.16888	13329
614.42523	13256
614.68152	13233
614.93787	13196
615.19415	13332
615.45044	13230
615.70673	13018
615.96307	13287
616.21936	13091
616.47559	12923
616.73187	12911
616.98816	12813
617.24445	12698
617.50067	12826
617.75696	12813
618.01318	12833
618.26941	12712
618.5257	12544
618.78192	12593
619.03815	12533
619.29437	12481
619.55054	12362
619.80676	12370
620.06299	12248
620.31915	12322
620.57538	12222
620.83154	12345
621.08777	12285
621.34393	11985
621.6001	12231
621.85626	12310
622.11243	12177
622.36859	12104
622.62469	12024
622.88086	12038
623.13702	11753
623.39313	12005
623.64929	11642
623.9054	11791
624.1615	11873
624.4176	11622
624.67371	11699
624.92981	11879
625.18591	11634
625.44202	11630
625.69806	11374
625.95416	11460
626.21021	11450
626.46631	11393
626.72235	11379
626.97839	11375
627.23444	11381
627.49048	11290
627.74652	11013
628.00256	11128
628.25861	11248
628.51465	11060
628.77063	11016
629.02667	11181
629.28265	10920
629.53864	10970
629.79462	10991
630.0506	11027
630.30658	10757
630.56256	10722
630.81854	10712
631.07452	10768
631.33044	10705
631.58643	10410
631.84235	10479
632.09833	10425
632.35425	10461
632.61017	10471
632.86609	10393
633.12201	10388
633.37793	10265
633.63385	10184
633.88977	10132
634.14563	10019
634.40155	10107
634.65741	9972
634.91327	9963
635.16919	9885
635.42505	9837
635.68091	9850
635.93677	9794
636.19257	9690
636.44843	9698
636.70428	9901
636.96008	9812
637.21594	9551
637.47174	9656
637.72754	9470
637.9834	9510
638.2392	9336
638.495	9540
638.75073	9441
639.00653	9317
639.26233	9298
639.51807	9257
639.77386	9237
640.0296	9322
640.2854	9019
640.54114	9303
640.79688	9140
641.05261	9087
641.30835	9040
641.56409	8842
641.81976	9086
642.0755	8834
642.33118	8873
642.58691	8870
642.84259	8839
643.09827	8710
643.354	8745
643.60968	8606
643.86536	8553
644.12097	8486
644.37665	8365
644.63232	8314
644.88794	8406
645.14362	8352
645.39923	8382
645.65485	8353
645.91046	8377
646.16608	8195
646.42169	8190
646.67731	8053
646.93292	7999
647.18854	8030
647.44409	8100
647.69971	7938
647.95526	7897
648.21082	7887
648.46637	8043
648.72192	7776
648.97748	7759
649.23303	8047
649.48859	7810
649.74414	7767
649.99963	7633
650.25519	7667
650.51068	7594
650.76617	7597
651.02167	7509
651.27722	7418
651.53265	7530
651.78815	7448
652.04364	7487
652.29913	7266
652.55457	7372
652.81006	7357
653.06549	7242
653.32092	7347
653.57635	7293
653.83185	7033
654.08722	7303
654.34265	7039
654.59808	6905
654.85352	6979
655.10889	6976
655.36432	7013
655.61969	6916
655.87506	7080
656.13043	6915
656.3858	6907
656.64117	6892
656.89655	6740
657.15192	6710
657.40729	6637
657.6626	6670
657.91791	6527
658.17328	6834
658.42859	6634
658.6839	6549
658.93921	6586
659.19452	6582
659.44983	6413
659.70508	6320
659.96039	6568
660.2157	6501
660.47095	6424
660.7262	6203
660.98145	6274
661.23669	6427
661.49194	6228
661.74719	6257
662.00244	6103
662.25769	6336
662.51288	6229
662.76813	6231
663.02332	6041
663.2785	6137
663.53369	5914
663.78894	5966
664.04407	5910
664.29926	6024
664.55444	5860
664.80963	6009
665.06476	5712
665.31995	5709
665.57507	5996
665.8302	5752
666.08533	5742
666.34045	5825
666.59558	5710
666.85071	5541
667.10577	5695
667.3609	5671
667.61597	5608
667.87109	5365
668.12616	5515
668.38123	5503
668.63629	5534
668.89136	5374
669.14642	5473
669.40149	5482
669.65649	5255
669.91156	5364
670.16656	5331
670.42157	5311
670.67664	5295
670.93164	5192
671.18665	5283
671.44159	5206
671.69659	5206
671.9516	5220
672.20654	5238
672.46155	5004
672.71649	5034
672.97144	4988
673.22638	4994
673.48132	5041
673.73627	4904
673.99121	4967
674.24615	4974
674.50104	4816
674.75598	4925
675.01086	4903
675.26575	4910
675.52063	4856
675.77551	4749
676.0304	4836
676.28528	4746
676.54016	4820
676.79498	4818
677.04987	4796
677.30469	4688
677.55957	4584
677.81439	4633
678.06921	4484
678.32404	4623
678.5788	4555
678.83362	4634
679.08844	4537
679.3432	4525
679.59802	4525
679.85278	4453
680.10754	4422
680.3623	4402
680.61707	4468
680.87183	4414
681.12659	4326
681.38129	4333
681.63605	4295
681.89075	4287
682.14545	4273
682.40021	4202
682.65491	4270
682.90961	4136
683.16425	4120
683.41895	4191
683.67365	4183
683.92828	4114
684.18298	4169
684.43762	4218
684.69226	4033
684.9469	4051
685.20154	4005
685.45618	4048
685.71082	3956
685.96539	3929
686.22003	4040
686.47461	3911
686.72919	3951
686.98376	3894
687.23834	3934
687.49292	3832
687.7475	3898
688.00208	3757
688.25659	3697
688.51117	3790
688.76569	3760
689.02026	3715
689.27478	3905
689.5293	3634
689.78381	3828
690.03827	3601
690.29279	3640
690.5473	3697
690.80176	3696
691.05621	3672
691.31073	3617
691.56519	3540
691.81964	3635
692.0741	3525
692.32849	3463
692.58295	3538
692.8374	3544
693.0918	3487
693.34619	3541
693.60065	3576
693.85504	3509
694.10944	3412
694.36377	3383
694.61816	3340
694.87256	3422
695.12689	3282
695.38129	3297
695.63562	3262
695.88995	3261
696.14429	3309
696.39862	3365
696.65295	3238
696.90729	3124
697.16156	3195
697.41589	3218
697.67017	3198
697.92444	3162
698.17871	3103
698.43298	3101
698.68726	3117
698.94153	3156
699.1958	3171
699.45001	3038
699.70428	3047
699.9585	2945
700.21271	3047
700.46692	3143
700.72113	3006
700.97534	3049
701.22955	2917
701.4837	3059
701.73792	2902
701.99207	3011
702.24622	2950
702.50037	2849
702.75452	2826
703.00867	2918
703.26282	2813
703.51697	2844
703.77106	2917
704.02521	2838
704.2793	2879
704.53339	2763
704.78748	2746
705.04156	2599
705.29565	2729
705.54974	2719
705.80377	2766
706.05786	2764
706.31189	2695
706.56592	2555
706.81995	2638
707.07397	2588
707.328	2636
707.58203	2679
707.83606	2595
708.09003	2610
708.34406	2590
708.59802	2547
708.85199	2424
709.10596	2612
709.35992	2498
709.61389	2447
709.8678	2452
710.12177	2473
710.37567	2490
710.62964	2498
710.88354	2432
711.13745	2544
711.39136	2377
711.64526	2328
711.89917	2421
712.15302	2295
712.40692	2474
712.66077	2385
712.91461	2217
713.16846	2311
713.4223	2288
713.67615	2281
713.92999	2229
714.18378	2317
714.43762	2287
714.69141	2200
714.94525	2221
715.19904	2223
715.45282	2246
715.7066	2168
715.96033	2240
716.21411	2329
716.46783	2215
716.72162	2141
716.97534	2192
717.22906	2219
717.48279	2062
717.73651	2076
717.99023	2171
718.24396	2142
718.49762	2190
718.75134	2056
719.005	2049
719.25867	2093
719.51233	2054
719.76599	2059
720.01965	2114
720.27325	2031
720.52692	2044
720.78052	1969
721.03418	1981
721.28778	1951
721.54138	1976
721.79498	1976
722.04858	1995
722.30212	1988
722.55573	1977
722.80927	1947
723.06281	1993
723.31641	1961
723.56995	1974
723.82349	1947
724.07697	1901
724.33051	1912
724.58405	1970
724.83752	1851
725.091	1949
725.34454	1817
725.59802	1813
725.85144	1841
726.10492	1853
726.3584	1789
726.61182	1830
726.8653	1845
727.11871	1769
727.37213	1815
727.62555	1819
727.87897	1744
728.13239	1751
728.3858	1742
728.63916	1844
728.89258	1710
729.14594	1833
729.39929	1767
729.65265	1823
729.90601	1742
730.15936	1637
730.41266	1719
730.66602	1678
730.91931	1702
731.17267	1679
731.42596	1615
731.67926	1682
731.93256	1670
732.18579	1666
732.43909	1636
732.69232	1659
732.94562	1611
733.19885	1650
733.45209	1599
733.70532	1585
733.95856	1645
734.21179	1631
734.46497	1671
734.7182	1545
734.97137	1615
735.22455	1548
735.47772	1609
735.7309	1530
735.98407	1527
736.23724	1470
736.49036	1498
736.74353	1467
736.99664	1476
737.24976	1468
737.50287	1489
737.75598	1484
738.00909	1427
738.26221	1464
738.51526	1438
738.76837	1333
739.02142	1501
739.27448	1469
739.52753	1412
739.78058	1441
740.03363	1412
740.28662	1468
740.53967	1415
740.79266	1436
741.04565	1469
741.29865	1368
741.55164	1414
741.80463	1331
742.05762	1355
742.31055	1342
742.56354	1388
742.81647	1297
743.0694	1306
743.32233	1340
743.57526	1346
743.82819	1340
744.08105	1398
744.33398	1347
744.58685	1269
744.83978	1323
745.09265	1252
745.34552	1259
745.59839	1282
745.8512	1333
746.10406	1283
746.35687	1248
746.60974	1322
746.86255	1240
747.11536	1263
747.36816	1261
747.62091	1271
747.87372	1230
748.12653	1201
748.37927	1238
748.63202	1230
748.88477	1187
749.13751	1150
749.39026	1205
749.64301	1169
749.89569	1226
750.14844	1195
750.40112	1099
750.65381	1088
750.90649	1169
751.15918	1146
751.41187	1166
751.66455	1154
751.91718	1130
752.16986	1185
752.42249	1078
752.67511	1122
752.92773	1093
753.18036	1110
753.43292	1120
753.68555	1119
753.93811	1140
754.19073	1091
754.4433	1092
754.69586	1092
754.94843	1110
755.20093	1035
755.45349	1133
755.70599	1029
755.95856	1053
756.21106	1072
756.46356	1044
756.71606	1077
756.96857	1033
757.22101	1050
757.47351	990
757.72595	1058
757.97845	1029
758.2309	969
758.48334	1004
758.73572	991
758.98816	1030
759.2406	1022
759.49298	978
759.74536	1021
759.9978	959
760.25018	962
760.5025	959
760.75488	1015
761.00726	995
761.25958	969
761.51196	969
761.76428	963
762.0166	994
762.26892	925
762.52118	974
762.7735	985
763.02582	966
763.27808	927
763.53033	961
763.78259	888
764.03485	920
764.28711	920
764.53937	880
764.79156	886
765.04376	930
765.29602	940
765.54822	891
765.80042	900
766.05261	877
766.30475	933
766.55695	884
766.80908	876
767.06122	922
767.31342	848
767.56549	910
767.81763	831
768.06976	866
768.3219	888
768.57397	833
768.82605	853
769.07813	844
769.3302	857
769.58228	868
769.83435	800
770.08643	834
770.33844	861
770.59045	843
770.84247	833
771.09448	786
771.3465	784
771.59851	796
771.85052	806
772.10248	767
772.35443	810
772.60645	753
772.8584	748
773.11029	817
773.36224	779
773.6142	783
773.86609	797
774.11798	791
774.36993	803
774.62183	802
774.87372	748
775.12555	739
775.37744	776
775.62927	813
775.88116	743
776.133	796
776.38483	748
776.63666	720
776.88843	743
777.14026	765
777.39203	702
777.64386	780
777.89563	701
778.1474	740
778.39917	709
778.65094	732
778.90265	727
779.15442	712
779.40613	745
779.65784	736
779.90955	685
780.16125	693
780.41296	711
780.66461	669
780.91632	720
781.16797	716
781.41962	686
781.67126	696
781.92291	680
782.17456	632
782.42615	698
782.6778	709
782.92938	705
783.18097	710
783.43256	626
783.68414	684
783.93567	678
784.18726	685
784.43878	666
784.69037	669
784.94189	661
785.19342	642
785.44495	662
785.69641	659
785.94794	689
786.1994	647
786.45087	659
786.70233	634
786.9538	659
787.20526	691
787.45673	661
787.70813	598
787.95959	639
788.211	676
788.4624	643
788.71381	638
788.96515	581
789.21655	618
789.46796	592
789.7193	634
789.97064	614
790.22198	610
790.47333	661
790.72467	640
790.97595	610
791.22729	544
791.47858	602
791.72986	607
791.98114	605
792.23242	589
792.48364	622
792.73492	592
792.98615	608
793.23743	621
793.48865	576
793.73987	615
793.99103	588
794.24225	566
794.49347	603
794.74463	615
794.99579	593
795.24695	564
795.49811	571
795.74927	606
796.00037	571
796.25153	590
796.50262	592
796.75372	540
797.00482	558
797.25592	521
797.50702	557
797.75806	528
798.00916	580
798.26019	562
798.51123	560
798.76227	577
799.01331	590
799.26428	557
799.51532	575
799.7663	561
800.01727	560
800.26825	505
800.51923	553
800.7702	549
801.02118	554
801.27209	555
801.52301	558
801.77393	546
802.02484	530
802.27576	554
802.52667	518
802.77753	544
803.02844	524
803.2793	575
803.53015	516
803.78101	522
804.03186	509
804.28265	548
804.53351	524
804.7843	530
805.0351	509
805.28589	518
805.53668	522
805.78748	518
806.03821	478
806.28894	532
806.53973	523
806.79047	497
807.0412	518
807.29187	523
807.5426	511
807.79327	514
808.04401	498
808.29468	543
808.54535	478
808.79602	525
809.04663	541
809.2973	502
809.54791	522
809.79852	533
810.04913	498
810.29974	495
810.55035	501
810.80096	506
811.05151	508
811.30206	487
811.55267	492
811.80322	464
812.05371	513
812.30426	491
812.55481	518
812.8053	495
813.05579	484
813.30627	507
813.55676	483
813.80725	491
814.05768	506
814.30817	484
814.55859	498
814.80902	485
815.05945	486
815.30988	497
815.56024	481
815.81067	467
816.06104	480
816.3114	467
816.56177	439
816.81213	437
817.0625	453
817.31281	483
817.56317	428
817.81348	467
818.06378	472
818.31409	467
818.56439	456
818.81464	462
819.06494	460
819.31519	475
819.56543	444
819.81567	444
820.06592	458
820.31616	433
820.56635	413
820.81653	431
821.06671	464
821.31689	433
821.56708	478
821.81726	464
822.06744	426
822.31757	446
822.56769	477
822.81781	462
823.06793	433
823.31805	441
823.56812	466
823.81824	458
824.0683	437
824.31836	446
824.56842	443
824.81848	429
825.06848	454
825.31854	425
825.56854	466
825.81854	434
826.06854	416
826.31854	445
826.56854	428
826.81848	451
827.06848	473
827.31842	426
827.56836	457
827.8183	442
828.06818	430
828.31812	433
828.56799	451
828.81787	470
829.06775	458
829.31763	459
829.5675	466
829.81738	448
830.0672	476
830.31702	437
830.56683	419
830.81665	450
831.06647	442
831.31628	428
831.56604	446
831.8158	438
832.06555	435
832.31531	439
832.56506	441
832.81482	420
833.06451	428
833.31421	424
833.56396	416
833.8136	436
834.06329	441
834.31299	444
834.56262	462
834.81232	433
835.06195	429
835.31158	442
835.56122	408
835.81079	423
836.06042	423
836.31	403
836.55957	420
836.80914	396
837.05872	400
837.30829	428
837.5578	446
837.80737	408
838.05688	419
838.3064	431
838.55591	434
838.80536	432
839.05487	444
839.30432	434
839.55377	443
839.80322	405
840.05267	419
840.30212	407
840.55151	388
840.80096	437
841.05035	420
841.29974	401
841.54913	419
841.79852	405
842.04785	431
842.29724	424
842.54657	404
842.7959	417
843.04523	387
843.29449	424
843.54382	368
843.79309	423
844.04236	413
844.29169	391
844.54089	403
844.79016	414
845.03943	425
845.28864	419
845.53784	444
845.78705	427
