Date and Time:                Sun Apr 14 16:13:45.916 2024
Software Version:             4.30.30000.0
Temperature (C):              -90
Model:                        DU971P_UVB
Data Type:                    Counts
Acquisition Mode:             Single Scan
Trigger Mode:                 Internal
Exposure Time (secs):         1
Readout Mode:                 Full Vertical Binning
Horizontal binning:           1
Extended Dynamic Range:       off
Horizontally flipped:         false
Vertical Shift Speed (usecs): 9.68
Pixel Readout Rate (MHz):     3
Baseline Clamp:               ON
Clock Amplitude:              Normal
Output Amplifier:             Conventional
Serial Number:                20367
Pre-Amplifier Gain:           4x
Spurious Noise Filter Mode:   No Filter
Photon counted:               false
Data Averaging Filter Mode:   No Filter
SR193i:
Serial Number:                SR-2646
Wavelength (nm):              650
Grating Groove Density (l/mm):300
Grating Blaze:                500nm
Input Side Slit Width (um):   1000



437.86981	12942
438.12854	13597
438.3873	14242
438.64606	15495
438.90482	15724
439.16354	16467
439.4223	17372
439.68103	17829
439.93979	18622
440.19852	19059
440.45724	19758
440.716	20476
440.97473	21196
441.23346	22126
441.49219	22760
441.75092	23130
442.00964	23897
442.26837	24854
442.5271	25192
442.78583	25913
443.04456	26470
443.30325	27229
443.56198	27927
443.82068	28548
444.07941	28963
444.3381	29221
444.59683	30467
444.85553	30932
445.11423	31492
445.37292	31504
445.63165	32316
445.89035	33039
446.14905	33359
446.40771	34114
446.66641	34445
446.92511	35166
447.18381	35652
447.4425	36097
447.70117	36640
447.95987	37260
448.21854	37636
448.47723	38174
448.7359	38074
448.99457	38891
449.25327	39171
449.51193	39464
449.7706	39576
450.02927	39891
450.28793	39818
450.5466	39111
450.80527	38847
451.0639	38035
451.32257	36780
451.58124	36501
451.83987	35415
452.09854	34878
452.35718	34162
452.61584	33801
452.87448	33046
453.13312	32301
453.39175	31515
453.65042	31126
453.90906	30655
454.16769	30156
454.42633	30082
454.68494	29500
454.94357	29096
455.20221	28781
455.46082	28266
455.71945	28153
455.97809	27693
456.23669	27177
456.4953	26950
456.75394	26561
457.01254	26230
457.27115	26162
457.52975	25938
457.78836	25367
458.04697	25844
458.30557	25620
458.56418	25501
458.82275	25401
459.08136	25194
459.33997	24867
459.59854	24818
459.85715	24756
460.11572	24686
460.3743	24614
460.6329	24635
460.89148	24551
461.15005	24257
461.40863	23888
461.66721	24587
461.92578	24358
462.18433	24673
462.4429	24472
462.70148	24532
462.96002	24295
463.2186	24489
463.47714	24783
463.73572	24406
463.99426	24647
464.25281	25088
464.51135	24618
464.7699	24825
465.02844	25588
465.28699	25219
465.54553	25258
465.80408	25452
466.06259	25696
466.32114	25833
466.57968	25796
466.8382	26116
467.09671	26504
467.35526	26560
467.61377	26632
467.87228	26838
468.1308	26651
468.38931	27335
468.64783	27245
468.90634	27393
469.16486	27535
469.42334	27794
469.68185	28161
469.94034	28610
470.19885	28224
470.45734	28404
470.71582	28864
470.97433	29326
471.23282	28729
471.4913	29639
471.74979	29668
472.00827	29904
472.26672	30016
472.52521	30318
472.78369	30382
473.04214	30872
473.30063	30561
473.55908	30787
473.81757	31487
474.07602	31238
474.33447	31437
474.59293	32014
474.85138	31665
475.10983	32437
475.36829	32485
475.62674	32539
475.88516	32516
476.14362	32886
476.40204	33079
476.66049	32818
476.91891	33287
477.17734	33587
477.43579	33248
477.69421	33439
477.95264	33669
478.21106	33351
478.46945	33684
478.72787	33867
478.9863	33835
479.24469	34230
479.50311	34289
479.76151	34622
480.01993	34687
480.27832	34347
480.53671	34802
480.7951	34654
481.0535	34614
481.31189	34864
481.57028	34889
481.82867	34989
482.08704	34922
482.34543	34980
482.60379	35046
482.86218	35084
483.12054	35163
483.37891	35012
483.63727	35137
483.89563	34959
484.15399	35417
484.41235	35071
484.67072	34940
484.92908	35433
485.18741	35155
485.44577	35048
485.7041	35368
485.96243	34895
486.22079	35243
486.47913	34995
486.73746	35564
486.99579	35274
487.25412	35045
487.51242	35126
487.77075	35372
488.02908	35089
488.28738	34975
488.54572	35058
488.80402	35209
489.06232	35150
489.32062	35031
489.57892	35274
489.83722	34949
490.09552	35437
490.35382	35084
490.61212	35326
490.87039	35331
491.12869	35143
491.38696	35219
491.64526	35470
491.90353	34994
492.1618	35349
492.42007	35239
492.67834	35553
492.93661	35347
493.19489	35190
493.45313	34948
493.7114	34996
493.96964	35100
494.22791	35624
494.48615	35317
494.74438	35467
495.00262	35102
495.26086	35450
495.5191	34961
495.77734	35299
496.03558	35425
496.29379	35173
496.55203	35247
496.81024	35429
497.06848	35165
497.32669	35149
497.5849	35383
497.84311	35050
498.10132	35220
498.35953	35234
498.61771	35113
498.87592	35208
499.13412	35241
499.3923	34978
499.65048	35388
499.90869	34884
500.16687	35268
500.42505	34781
500.68323	35478
500.94141	34977
501.19958	35117
501.45773	34513
501.71591	34940
501.97406	34731
502.23224	34914
502.49039	34725
502.74854	35065
503.00668	34572
503.26483	34829
503.52298	34518
503.78113	34567
504.03925	34825
504.29739	34721
504.55551	34820
504.81366	34661
505.07178	34907
505.3299	34632
505.58801	34724
505.84613	34096
506.10425	34528
506.36237	34541
506.62045	34776
506.87857	34415
507.13666	34383
507.39478	34453
507.65286	34542
507.91095	34444
508.16904	34734
508.42712	33849
508.68521	34105
508.94327	34110
509.20135	34052
509.45941	33861
509.7175	34338
509.97556	34311
510.23361	34016
510.49167	33742
510.74973	33862
511.00778	34221
511.26584	34119
511.5239	33936
511.78192	33710
512.03998	34167
512.29797	33729
512.55603	33719
512.81409	33172
513.07208	33235
513.33014	33598
513.58813	33651
513.84613	33218
514.10419	33446
514.36218	33503
514.62018	33347
514.87817	33499
515.13617	33045
515.39417	33316
515.65216	33304
515.91016	32942
516.16815	33405
516.42615	33250
516.68408	32689
516.94208	32775
517.20007	33120
517.45801	32701
517.716	32525
517.97394	32513
518.23193	32580
518.48987	32795
518.7478	32440
519.0058	32319
519.26373	31974
519.52167	32396
519.7796	31895
520.03754	32359
520.29547	32330
520.55341	32451
520.81134	32103
521.06927	31918
521.32715	31889
521.58508	31881
521.84302	31662
522.10089	31951
522.35883	31668
522.6167	31811
522.87463	31086
523.13251	31628
523.39038	31524
523.64825	31242
523.90619	31119
524.16406	31274
524.42194	30813
524.67981	30997
524.93768	30913
525.19556	30625
525.45337	30940
525.71124	30826
525.96912	30544
526.22699	30400
526.4848	30721
526.74268	30729
527.00049	30652
527.25836	30196
527.51617	30224
527.77399	30230
528.0318	29679
528.28967	30108
528.54749	29987
528.8053	30170
529.06311	29754
529.32092	29498
529.57874	29652
529.83655	29639
530.0943	29267
530.35211	29599
530.60992	29269
530.86768	29236
531.12549	29587
531.38324	29387
531.64105	29178
531.8988	28883
532.15656	28999
532.41437	28680
532.67212	28461
532.92987	28557
533.18762	28646
533.44537	28547
533.70313	28443
533.96088	28459
534.21857	28411
534.47632	28201
534.73407	28230
534.99182	27816
535.24951	27805
535.50726	28029
535.76495	27770
536.02264	27707
536.2804	27376
536.53809	27704
536.79578	27731
537.05347	27555
537.31116	27986
537.56885	27514
537.82654	27482
538.08423	27469
538.34192	27485
538.59961	27103
538.85724	27043
539.11493	27066
539.37262	26751
539.63025	27045
539.88794	26624
540.14557	26310
540.4032	26584
540.66089	26252
540.91852	26454
541.17615	26385
541.43378	26407
541.69141	26299
541.94904	26186
542.20667	26162
542.46429	25867
542.72186	25917
542.97949	25855
543.23712	25997
543.49469	25738
543.75232	25664
544.00989	25862
544.26752	25768
544.52509	25432
544.78265	25215
545.04022	25373
545.29779	25398
545.55542	25314
545.81293	25428
546.0705	25158
546.32806	25009
546.58563	24754
546.8432	25162
547.10071	24913
547.35828	25033
547.61584	24467
547.87335	24680
548.13086	24600
548.38843	24778
548.64594	24704
548.90344	24855
549.16095	24544
549.41846	24500
549.67596	24567
549.93347	24266
550.19098	24175
550.44849	24313
550.70599	24150
550.96344	24397
551.22095	24250
551.47845	24005
551.7359	23916
551.99335	23844
552.25085	24085
552.5083	23817
552.76575	23919
553.02319	23589
553.28064	23653
553.53809	24094
553.79553	23671
554.05298	23655
554.31042	23563
554.56787	23606
554.82526	23526
555.0827	23489
555.34015	23474
555.59753	23324
555.85492	23468
556.11237	23317
556.36975	23339
556.62714	22995
556.88452	23295
557.14191	23228
557.39929	23262
557.65668	22773
557.91406	23088
558.17145	23281
558.42883	22772
558.68616	23293
558.94354	22953
559.20087	23029
559.45825	22719
559.71558	22897
559.9729	22767
560.23029	22830
560.48761	22789
560.74493	22602
561.00226	22779
561.25958	22778
561.51691	22865
561.77423	22776
562.03149	22581
562.28882	22920
562.54614	22313
562.80341	22715
563.06067	22496
563.31799	22579
563.57526	22538
563.83252	22401
564.08984	22475
564.34711	22515
564.60437	22317
564.86163	22152
565.1189	22651
565.3761	22206
565.63336	22164
565.89063	22186
566.14783	22030
566.40509	22286
566.66229	22219
566.91956	21770
567.17676	22131
567.43396	22325
567.69116	22243
567.94843	21893
568.20563	22092
568.46283	22115
568.71997	21919
568.97717	21841
569.23438	21859
569.49158	21815
569.74872	21924
570.00592	21699
570.26306	21721
570.52026	21783
570.7774	21739
571.03455	21852
571.29169	21612
571.54883	21620
571.80597	21533
572.06311	21544
572.32025	21354
572.57739	21603
572.83453	21137
573.09161	20902
573.34875	21320
573.60583	21177
573.86298	21382
574.12006	21296
574.37714	20824
574.63422	21153
574.89136	21027
575.14844	21364
575.40552	21125
575.6626	20984
575.91962	20931
576.1767	20984
576.43378	20965
576.6908	21037
576.94788	20770
577.2049	20747
577.46198	20717
577.71899	20794
577.97601	20620
578.23303	20672
578.49005	20550
578.74707	20408
579.00409	20512
579.26111	20213
579.51813	20406
579.77515	20406
580.0321	20211
580.28912	20102
580.54608	20037
580.8031	20122
581.06006	20213
581.31702	19938
581.57397	20119
581.83093	20224
582.08789	20026
582.34485	19845
582.60181	19770
582.85876	19903
583.11566	19999
583.37262	19786
583.62958	19751
583.88647	20015
584.14337	19582
584.40033	19656
584.65723	19580
584.91412	19430
585.17102	19167
585.42792	19582
585.68481	19287
585.94171	19263
586.19861	19223
586.45544	19405
586.71234	18887
586.96918	18906
587.22607	19135
587.48291	18874
587.73981	18859
587.99664	18924
588.25348	18445
588.51031	18673
588.76715	18611
589.02399	18460
589.28082	18349
589.5376	18568
589.79443	18584
590.05127	18206
590.30804	18401
590.56482	18363
590.82166	17987
591.07843	18103
591.33521	18031
591.59198	17925
591.84875	17923
592.10553	18013
592.3623	18092
592.61908	17577
592.87579	17724
593.13257	17721
593.38934	17494
593.64606	17601
593.90277	17473
594.15955	17307
594.41626	17363
594.67297	17246
594.92969	17025
595.1864	17132
595.44312	17389
595.69983	17197
595.95648	16989
596.2132	17108
596.46991	17066
596.72656	16971
596.98322	16628
597.23993	16713
597.49658	16649
597.75323	16563
598.00989	16529
598.26654	16562
598.52319	16631
598.77985	16756
599.0365	16283
599.29309	16526
599.54974	16371
599.80634	16496
600.06299	16189
600.31958	15964
600.57617	16006
600.83276	16097
601.08936	16079
601.34595	16069
601.60254	15872
601.85913	15973
602.11572	15946
602.37225	15509
602.62885	15734
602.88544	15869
603.14197	15481
603.3985	15469
603.65503	15668
603.91162	15416
604.16815	15431
604.42468	15295
604.68121	15281
604.93768	15145
605.19421	15582
605.45074	14995
605.70721	15330
605.96375	15048
606.22021	15183
606.47668	14958
606.73322	15087
606.98969	14868
607.24615	14933
607.50262	14526
607.75909	14587
608.0155	14576
608.27197	14694
608.52844	14573
608.78485	14562
609.04132	14497
609.29773	14250
609.55414	14470
609.81055	14458
610.06696	14432
610.32336	14302
610.57977	14332
610.83618	14311
611.09259	14280
611.349	14208
611.60535	13916
611.86176	14063
612.1181	14138
612.37445	13875
612.63086	14137
612.88721	13962
613.14355	13792
613.3999	13832
613.65625	13806
613.91254	13876
614.16888	13655
614.42523	13629
614.68152	13535
614.93787	13535
615.19415	13401
615.45044	13526
615.70673	13516
615.96307	13438
616.21936	13418
616.47559	13414
616.73187	13273
616.98816	13365
617.24445	13313
617.50067	13382
617.75696	12955
618.01318	13304
618.26941	13125
618.5257	13135
618.78192	13150
619.03815	12917
619.29437	12727
619.55054	12760
619.80676	12875
620.06299	12812
620.31915	12891
620.57538	12598
620.83154	12658
621.08777	12513
621.34393	12743
621.6001	12552
621.85626	12403
622.11243	12436
622.36859	12531
622.62469	12283
622.88086	12546
623.13702	12238
623.39313	12308
623.64929	12128
623.9054	12057
624.1615	12092
624.4176	12068
624.67371	11781
624.92981	12011
625.18591	11992
625.44202	11675
625.69806	11722
625.95416	11863
626.21021	11684
626.46631	11803
626.72235	11788
626.97839	11602
627.23444	11668
627.49048	11539
627.74652	11518
628.00256	11702
628.25861	11428
628.51465	11510
628.77063	11348
629.02667	11351
629.28265	11367
629.53864	11224
629.79462	11229
630.0506	11256
630.30658	11265
630.56256	11161
630.81854	10849
631.07452	10901
631.33044	10941
631.58643	10949
631.84235	10881
632.09833	10839
632.35425	10761
632.61017	10719
632.86609	10562
633.12201	10774
633.37793	10654
633.63385	10556
633.88977	10544
634.14563	10365
634.40155	10291
634.65741	10368
634.91327	10531
635.16919	10207
635.42505	10198
635.68091	10370
635.93677	10173
636.19257	10150
636.44843	10077
636.70428	9857
636.96008	10002
637.21594	9712
637.47174	9840
637.72754	9923
637.9834	9784
638.2392	9811
638.495	9744
638.75073	9807
639.00653	9755
639.26233	9639
639.51807	9327
639.77386	9228
640.0296	9494
640.2854	9517
640.54114	9346
640.79688	9250
641.05261	9252
641.30835	9166
641.56409	9340
641.81976	9234
642.0755	9240
642.33118	9257
642.58691	8977
642.84259	8934
643.09827	9180
643.354	8999
643.60968	9037
643.86536	8926
644.12097	8857
644.37665	8834
644.63232	8801
644.88794	8703
645.14362	8827
645.39923	8497
645.65485	8494
645.91046	8548
646.16608	8505
646.42169	8455
646.67731	8588
646.93292	8338
647.18854	8387
647.44409	8300
647.69971	8129
647.95526	8229
648.21082	7979
648.46637	8023
648.72192	8078
648.97748	8149
649.23303	8103
649.48859	7966
649.74414	7920
649.99963	7895
650.25519	7802
650.51068	7822
650.76617	7812
651.02167	7613
651.27722	7646
651.53265	7543
651.78815	7697
652.04364	7463
652.29913	7488
652.55457	7533
652.81006	7475
653.06549	7405
653.32092	7272
653.57635	7411
653.83185	7288
654.08722	7384
654.34265	7279
654.59808	7245
654.85352	7033
655.10889	7342
655.36432	7206
655.61969	7152
655.87506	7218
656.13043	7108
656.3858	7121
656.64117	6950
656.89655	6958
657.15192	7116
657.40729	6914
657.6626	6859
657.91791	6825
658.17328	6810
658.42859	6773
658.6839	6724
658.93921	6662
659.19452	6604
659.44983	6783
659.70508	6651
659.96039	6603
660.2157	6553
660.47095	6507
660.7262	6466
660.98145	6591
661.23669	6338
661.49194	6475
661.74719	6403
662.00244	6481
662.25769	6317
662.51288	6265
662.76813	6371
663.02332	6152
663.2785	6347
663.53369	6221
663.78894	6191
664.04407	6066
664.29926	6095
664.55444	6067
664.80963	6008
665.06476	6092
665.31995	6130
665.57507	5813
665.8302	5825
666.08533	6012
666.34045	5761
666.59558	5774
666.85071	5815
667.10577	5751
667.3609	5906
667.61597	5651
667.87109	5660
668.12616	5616
668.38123	5622
668.63629	5682
668.89136	5605
669.14642	5549
669.40149	5488
669.65649	5414
669.91156	5678
670.16656	5444
670.42157	5320
670.67664	5286
670.93164	5368
671.18665	5487
671.44159	5201
671.69659	5345
671.9516	5158
672.20654	5137
672.46155	5212
672.71649	5137
672.97144	5266
673.22638	5038
673.48132	5284
673.73627	5196
673.99121	5109
674.24615	5233
674.50104	5057
674.75598	5014
675.01086	5022
675.26575	5067
675.52063	5040
675.77551	4913
676.0304	4923
676.28528	4813
676.54016	4871
676.79498	4810
677.04987	4878
677.30469	4721
677.55957	4746
677.81439	4907
678.06921	4743
678.32404	4783
678.5788	4608
678.83362	4805
679.08844	4645
679.3432	4583
679.59802	4604
679.85278	4605
680.10754	4701
680.3623	4515
680.61707	4544
680.87183	4440
681.12659	4507
681.38129	4499
681.63605	4503
681.89075	4447
682.14545	4397
682.40021	4501
682.65491	4379
682.90961	4448
683.16425	4387
683.41895	4348
683.67365	4220
683.92828	4249
684.18298	4215
684.43762	4078
684.69226	4136
684.9469	4169
685.20154	4186
685.45618	4207
685.71082	4071
685.96539	4021
686.22003	4035
686.47461	4063
686.72919	3971
686.98376	3911
687.23834	3970
687.49292	4018
687.7475	4001
688.00208	3871
688.25659	3900
688.51117	3794
688.76569	3814
689.02026	3864
689.27478	3833
689.5293	3768
689.78381	3884
690.03827	3724
690.29279	3786
690.5473	3747
690.80176	3799
691.05621	3789
691.31073	3736
691.56519	3658
691.81964	3715
692.0741	3654
692.32849	3573
692.58295	3702
692.8374	3717
693.0918	3552
693.34619	3540
693.60065	3539
693.85504	3609
694.10944	3533
694.36377	3548
694.61816	3413
694.87256	3438
695.12689	3462
695.38129	3381
695.63562	3423
695.88995	3229
696.14429	3368
696.39862	3448
696.65295	3433
696.90729	3201
697.16156	3383
697.41589	3315
697.67017	3246
697.92444	3246
698.17871	3209
698.43298	3334
698.68726	3239
698.94153	3123
699.1958	3178
699.45001	3234
699.70428	3125
699.9585	3150
700.21271	3226
700.46692	3135
700.72113	3039
700.97534	3056
701.22955	3095
701.4837	3060
701.73792	3007
701.99207	3097
702.24622	3079
702.50037	3025
702.75452	2940
703.00867	2996
703.26282	2942
703.51697	3072
703.77106	2814
704.02521	2853
704.2793	2784
704.53339	2893
704.78748	2839
705.04156	2869
705.29565	2890
705.54974	2742
705.80377	2775
706.05786	2737
706.31189	2717
706.56592	2684
706.81995	2760
707.07397	2598
707.328	2541
707.58203	2682
707.83606	2671
708.09003	2653
708.34406	2647
708.59802	2616
708.85199	2571
709.10596	2559
709.35992	2634
709.61389	2633
709.8678	2540
710.12177	2576
710.37567	2610
710.62964	2522
710.88354	2576
711.13745	2450
711.39136	2431
711.64526	2438
711.89917	2456
712.15302	2482
712.40692	2347
712.66077	2468
712.91461	2434
713.16846	2458
713.4223	2392
713.67615	2380
713.92999	2365
714.18378	2308
714.43762	2330
714.69141	2405
714.94525	2266
715.19904	2236
715.45282	2181
715.7066	2277
715.96033	2289
716.21411	2209
716.46783	2241
716.72162	2295
716.97534	2242
717.22906	2219
717.48279	2187
717.73651	2152
717.99023	2248
718.24396	2218
718.49762	2189
718.75134	2140
719.005	2108
719.25867	2105
719.51233	2154
719.76599	2113
720.01965	2034
720.27325	1964
720.52692	2062
720.78052	2114
721.03418	2111
721.28778	2073
721.54138	2034
721.79498	2047
722.04858	2024
722.30212	2003
722.55573	2053
722.80927	2061
723.06281	2015
723.31641	2013
723.56995	2039
723.82349	2012
724.07697	1943
724.33051	1983
724.58405	1976
724.83752	2027
725.091	1930
725.34454	1878
725.59802	1939
725.85144	1912
726.10492	1851
726.3584	1885
726.61182	1812
726.8653	1948
727.11871	1952
727.37213	1862
727.62555	1830
727.87897	1840
728.13239	1790
728.3858	1820
728.63916	1767
728.89258	1763
729.14594	1786
729.39929	1758
729.65265	1769
729.90601	1799
730.15936	1740
730.41266	1753
730.66602	1789
730.91931	1786
731.17267	1710
731.42596	1713
731.67926	1627
731.93256	1689
732.18579	1690
732.43909	1655
732.69232	1718
732.94562	1635
733.19885	1772
733.45209	1599
733.70532	1644
733.95856	1657
734.21179	1691
734.46497	1658
734.7182	1598
734.97137	1590
735.22455	1553
735.47772	1642
735.7309	1559
735.98407	1547
736.23724	1559
736.49036	1550
736.74353	1522
736.99664	1526
737.24976	1539
737.50287	1536
737.75598	1566
738.00909	1519
738.26221	1514
738.51526	1556
738.76837	1469
739.02142	1561
739.27448	1433
739.52753	1479
739.78058	1456
740.03363	1445
740.28662	1382
740.53967	1450
740.79266	1498
741.04565	1458
741.29865	1371
741.55164	1419
741.80463	1365
742.05762	1406
742.31055	1430
742.56354	1347
742.81647	1329
743.0694	1422
743.32233	1375
743.57526	1359
743.82819	1275
744.08105	1360
744.33398	1347
744.58685	1329
744.83978	1357
745.09265	1321
745.34552	1296
745.59839	1301
745.8512	1248
746.10406	1358
746.35687	1319
746.60974	1327
746.86255	1285
747.11536	1224
747.36816	1308
747.62091	1254
747.87372	1220
748.12653	1242
748.37927	1232
748.63202	1217
748.88477	1248
749.13751	1209
749.39026	1237
749.64301	1148
749.89569	1191
750.14844	1248
750.40112	1229
750.65381	1201
750.90649	1163
751.15918	1191
751.41187	1141
751.66455	1140
751.91718	1083
752.16986	1158
752.42249	1198
752.67511	1150
752.92773	1096
753.18036	1098
753.43292	1123
753.68555	1118
753.93811	1076
754.19073	1105
754.4433	1109
754.69586	1062
754.94843	1127
755.20093	1037
755.45349	1127
755.70599	1113
755.95856	1063
756.21106	1069
756.46356	1054
756.71606	1092
756.96857	993
757.22101	1073
757.47351	1065
757.72595	1041
757.97845	1078
758.2309	1055
758.48334	1051
758.73572	1022
758.98816	1037
759.2406	956
759.49298	975
759.74536	980
759.9978	961
760.25018	1003
760.5025	1034
760.75488	962
761.00726	1019
761.25958	989
761.51196	974
761.76428	947
762.0166	997
762.26892	973
762.52118	995
762.7735	972
763.02582	921
763.27808	984
763.53033	966
763.78259	932
764.03485	910
764.28711	929
764.53937	941
764.79156	951
765.04376	922
765.29602	880
765.54822	954
765.80042	905
766.05261	875
766.30475	871
766.55695	918
766.80908	887
767.06122	899
767.31342	869
767.56549	900
767.81763	866
768.06976	859
768.3219	910
768.57397	838
768.82605	951
769.07813	862
769.3302	867
769.58228	900
769.83435	856
770.08643	859
770.33844	818
770.59045	850
770.84247	777
771.09448	812
771.3465	835
771.59851	844
771.85052	808
772.10248	817
772.35443	825
772.60645	843
772.8584	814
773.11029	833
773.36224	792
773.6142	778
773.86609	808
774.11798	799
774.36993	797
774.62183	773
774.87372	807
775.12555	793
775.37744	775
775.62927	756
775.88116	783
776.133	787
776.38483	785
776.63666	758
776.88843	752
777.14026	748
777.39203	739
777.64386	755
777.89563	711
778.1474	716
778.39917	729
778.65094	760
778.90265	749
779.15442	780
779.40613	704
779.65784	754
779.90955	726
780.16125	739
780.41296	705
780.66461	717
780.91632	708
781.16797	712
781.41962	731
781.67126	705
781.92291	711
782.17456	683
782.42615	700
782.6778	693
782.92938	683
783.18097	698
783.43256	669
783.68414	718
783.93567	688
784.18726	694
784.43878	660
784.69037	675
784.94189	692
785.19342	655
785.44495	693
785.69641	681
785.94794	693
786.1994	656
786.45087	670
786.70233	607
786.9538	648
787.20526	633
787.45673	640
787.70813	648
787.95959	623
788.211	660
788.4624	648
788.71381	660
788.96515	587
789.21655	637
789.46796	658
789.7193	614
789.97064	660
790.22198	644
790.47333	622
790.72467	625
790.97595	656
791.22729	611
791.47858	634
791.72986	582
791.98114	601
792.23242	627
792.48364	633
792.73492	642
792.98615	612
793.23743	584
793.48865	593
793.73987	604
793.99103	615
794.24225	603
794.49347	609
794.74463	573
794.99579	609
795.24695	574
795.49811	600
795.74927	588
796.00037	579
796.25153	583
796.50262	583
796.75372	592
797.00482	600
797.25592	571
797.50702	557
797.75806	563
798.00916	538
798.26019	566
798.51123	564
798.76227	530
799.01331	558
799.26428	539
799.51532	581
799.7663	538
800.01727	556
800.26825	554
800.51923	580
800.7702	565
801.02118	508
801.27209	539
801.52301	591
801.77393	545
802.02484	521
802.27576	545
802.52667	608
802.77753	538
803.02844	550
803.2793	543
803.53015	548
803.78101	532
804.03186	517
804.28265	518
804.53351	529
804.7843	533
805.0351	506
805.28589	536
805.53668	504
805.78748	566
806.03821	521
806.28894	490
806.53973	543
806.79047	509
807.0412	533
807.29187	498
807.5426	498
807.79327	497
808.04401	494
808.29468	495
808.54535	511
808.79602	477
809.04663	531
809.2973	501
809.54791	505
809.79852	496
810.04913	496
810.29974	523
810.55035	519
810.80096	488
811.05151	506
811.30206	494
811.55267	471
811.80322	467
812.05371	479
812.30426	483
812.55481	507
812.8053	507
813.05579	499
813.30627	490
813.55676	513
813.80725	468
814.05768	490
814.30817	465
814.55859	474
814.80902	464
815.05945	470
815.30988	525
815.56024	533
815.81067	462
816.06104	499
816.3114	465
816.56177	468
816.81213	481
817.0625	471
817.31281	488
817.56317	465
817.81348	472
818.06378	458
818.31409	481
818.56439	471
818.81464	473
819.06494	437
819.31519	437
819.56543	445
819.81567	466
820.06592	455
820.31616	457
820.56635	432
820.81653	447
821.06671	490
821.31689	484
821.56708	490
821.81726	441
822.06744	485
822.31757	440
822.56769	462
822.81781	459
823.06793	474
823.31805	448
823.56812	434
823.81824	453
824.0683	444
824.31836	430
824.56842	473
824.81848	451
825.06848	470
825.31854	423
825.56854	455
825.81854	447
826.06854	416
826.31854	443
826.56854	437
826.81848	449
827.06848	450
827.31842	437
827.56836	439
827.8183	463
828.06818	442
828.31812	473
828.56799	440
828.81787	467
829.06775	436
829.31763	438
829.5675	433
829.81738	427
830.0672	463
830.31702	418
830.56683	446
830.81665	419
831.06647	437
831.31628	443
831.56604	471
831.8158	438
832.06555	437
832.31531	466
832.56506	404
832.81482	411
833.06451	422
833.31421	410
833.56396	445
833.8136	442
834.06329	442
834.31299	422
834.56262	422
834.81232	429
835.06195	417
835.31158	429
835.56122	419
835.81079	436
836.06042	413
836.31	421
836.55957	407
836.80914	405
837.05872	424
837.30829	421
837.5578	410
837.80737	438
838.05688	419
838.3064	398
838.55591	422
838.80536	448
839.05487	438
839.30432	455
839.55377	409
839.80322	423
840.05267	385
840.30212	418
840.55151	450
840.80096	406
841.05035	419
841.29974	411
841.54913	440
841.79852	411
842.04785	445
842.29724	417
842.54657	423
842.7959	408
843.04523	416
843.29449	428
843.54382	415
843.79309	395
844.04236	376
844.29169	408
844.54089	408
844.79016	442
845.03943	423
845.28864	437
845.53784	425
845.78705	418
