Date and Time:                Wed May 15 15:21:23.698 2024
Software Version:             4.30.30000.0
Temperature (C):              -90
Model:                        DU971P_UVB
Data Type:                    Counts
Acquisition Mode:             Single Scan
Trigger Mode:                 Internal
Exposure Time (secs):         1
Readout Mode:                 Full Vertical Binning
Horizontal binning:           1
Extended Dynamic Range:       off
Horizontally flipped:         false
Vertical Shift Speed (usecs): 9.68
Pixel Readout Rate (MHz):     3
Baseline Clamp:               ON
Clock Amplitude:              Normal
Output Amplifier:             Conventional
Serial Number:                20367
Pre-Amplifier Gain:           4x
Spurious Noise Filter Mode:   No Filter
Photon counted:               false
Data Averaging Filter Mode:   No Filter
SR193i:
Serial Number:                SR-2646
Wavelength (nm):              630
Grating Groove Density (l/mm):300
Grating Blaze:                500nm
Input Side Slit Width (um):   1000



417.6445	12340
417.9035	12580
418.16251	12997
418.42151	13530
418.68048	13707
418.93948	14251
419.19846	14844
419.45746	15267
419.71643	15744
419.97543	16308
420.23441	16967
420.49341	17930
420.75238	18733
421.01135	19784
421.27032	21025
421.5293	23286
421.78827	28325
422.04724	39674
422.30621	59831
422.56519	61199
422.82416	61318
423.08313	65535
423.34207	65535
423.60104	0
423.85999	0
424.11896	0
424.3779	0
424.63687	0
424.89581	0
425.15475	0
425.41373	0
425.67267	0
425.93161	0
426.19055	0
426.44949	0
426.70844	0
426.96738	0
427.22629	0
427.48523	0
427.74417	0
428.00308	0
428.26202	0
428.52094	0
428.77988	0
429.03879	0
429.2977	0
429.55664	0
429.81555	0
430.07446	0
430.33337	0
430.59229	0
430.8512	0
431.11011	0
431.36899	0
431.6279	0
431.88681	0
432.14569	0
432.4046	0
432.66348	0
432.92239	0
433.18127	0
433.44016	0
433.69907	0
433.95795	0
434.21683	0
434.47571	0
434.73459	0
434.99347	0
435.25232	0
435.5112	0
435.77008	0
436.02896	0
436.28781	0
436.54669	0
436.80554	0
437.06439	0
437.32327	0
437.58212	0
437.84097	0
438.09982	0
438.35867	0
438.61752	0
438.87637	0
439.13522	0
439.39404	0
439.65289	0
439.91174	0
440.17056	0
440.42941	0
440.68823	0
440.94705	0
441.20587	0
441.46472	0
441.72354	0
441.98236	0
442.24118	0
442.5	0
442.75879	0
443.01761	0
443.27643	0
443.53522	0
443.79404	0
444.05283	0
444.31165	0
444.57043	0
444.82922	0
445.08801	0
445.34683	0
445.60562	0
445.86441	0
446.12317	0
446.38196	0
446.64075	0
446.89954	0
447.15829	22228
447.41708	12608
447.67584	16097
447.9346	15803
448.19339	15684
448.45215	15269
448.71091	14875
448.96967	14765
449.22842	14549
449.48718	14472
449.74594	14042
450.00467	13748
450.26343	13685
450.52219	13599
450.78091	13337
451.03967	13395
451.2984	12935
451.55713	12709
451.81589	12696
452.07462	12610
452.33334	12447
452.59207	12030
452.8508	12123
453.1095	11908
453.36823	11807
453.62695	11797
453.88565	11903
454.14438	11724
454.40308	11623
454.6618	11494
454.9205	11307
455.1792	11254
455.4379	11159
455.69659	11024
455.95529	11173
456.21399	10987
456.47269	11027
456.73138	10774
456.99005	10853
457.24875	10601
457.50742	10603
457.76611	10744
458.02478	10459
458.28345	10353
458.54211	10594
458.80078	10740
459.05945	10296
459.31812	10460
459.57678	10329
459.83545	10329
460.09409	10331
460.35275	10467
460.61139	10282
460.87006	10366
461.12869	10377
461.38733	10341
461.64597	10498
461.9046	10354
462.16324	10285
462.42188	10298
462.68051	10446
462.93915	10196
463.19775	10455
463.45639	10379
463.715	10551
463.97363	10619
464.23224	10519
464.49084	10757
464.74945	10629
465.00806	10653
465.26666	10805
465.52527	10707
465.78387	10708
466.04248	10614
466.30106	10816
466.55966	10706
466.81824	10831
467.07684	10744
467.33542	10935
467.59399	10993
467.85257	10966
468.11115	11048
468.36972	11004
468.6283	11169
468.88684	11222
469.14542	11297
469.40399	11277
469.66254	11490
469.92108	11496
470.17966	11757
470.4382	11501
470.69675	11647
470.95529	11974
471.21384	11695
471.47238	11848
471.7309	11847
471.98944	11895
472.24799	12053
472.5065	12103
472.76501	12211
473.02356	12130
473.28207	12307
473.54059	12526
473.7991	12355
474.05762	12396
474.31613	12524
474.57462	12545
474.83313	12527
475.09161	12721
475.35013	12749
475.60861	12649
475.8671	12767
476.12561	12940
476.38409	12796
476.64258	12885
476.90106	12992
477.15952	12873
477.418	13085
477.67648	12904
477.93494	12866
478.19339	13002
478.45187	13249
478.71033	13052
478.96878	13173
479.22723	13126
479.48569	13376
479.74414	13223
480.00259	13129
480.26102	13294
480.51947	13249
480.77789	13416
481.03635	13144
481.29477	13520
481.55319	13227
481.81161	13446
482.07004	13598
482.32846	13251
482.58688	13469
482.84528	13405
483.1037	13367
483.36209	13365
483.62051	13386
483.87891	13327
484.1373	13514
484.39569	13516
484.65408	13229
484.91248	13585
485.17087	13366
485.42923	13495
485.68762	13334
485.94598	13539
486.20438	13504
486.46274	13277
486.7211	13482
486.97946	13769
487.23782	13512
487.49619	13521
487.75455	13468
488.01291	13373
488.27124	13333
488.5296	13290
488.78793	13280
489.04626	13510
489.3046	13121
489.56293	13392
489.82126	13418
490.07959	13412
490.33792	13492
490.59622	13513
490.85455	13151
491.11285	13370
491.37119	13324
491.62949	13399
491.88779	13279
492.14609	13269
492.40439	13303
492.66269	13403
492.92096	13319
493.17926	13341
493.43756	13160
493.69583	13279
493.9541	13367
494.21237	13083
494.47064	13253
494.72891	13006
494.98718	13217
495.24545	13341
495.50372	13206
495.76196	13206
496.0202	13463
496.27847	13227
496.53671	13429
496.79495	13332
497.05319	13275
497.31143	13035
497.56967	13349
497.82788	13037
498.08612	13471
498.34433	13172
498.60257	13154
498.86078	13184
499.11899	13213
499.3772	13305
499.63541	13254
499.89362	13286
500.15179	13129
500.41	13042
500.66818	12929
500.92639	12785
501.18457	13014
501.44275	13140
501.70093	13132
501.95911	13082
502.21729	12938
502.47546	13061
502.73361	13044
502.99179	12903
503.24994	13090
503.50809	12962
503.76624	12964
504.02438	12948
504.28253	12791
504.54068	12885
504.79883	12819
505.05695	12583
505.31509	12959
505.57321	12940
505.83133	12833
506.08945	12856
506.34756	12984
506.60568	12773
506.8638	12906
507.12192	12782
507.38	12687
507.63812	12730
507.89621	12923
508.1543	12859
508.41238	12589
508.67047	12905
508.92856	12721
509.18665	12639
509.4447	12670
509.70279	12652
509.96085	12439
510.2189	12625
510.47699	12521
510.73505	12326
510.9931	12621
511.25113	12419
511.50919	12461
511.76724	12458
512.02527	12598
512.28333	12373
512.54132	12396
512.79938	12606
513.05737	12220
513.31543	12461
513.57343	12247
513.83142	12322
514.08948	12332
514.34747	12474
514.60547	12534
514.86346	12123
515.12146	12040
515.37946	12101
515.63745	12276
515.89545	12208
516.15338	12337
516.41138	12270
516.66937	12297
516.92731	11989
517.1853	12224
517.44324	12089
517.70123	12190
517.95917	11848
518.2171	11971
518.4751	11997
518.73303	11840
518.99097	11905
519.2489	12103
519.50684	11718
519.76477	11781
520.02271	11746
520.28058	11647
520.53851	11943
520.79645	11846
521.05432	11844
521.31226	11579
521.57013	11702
521.82806	11739
522.08594	11547
522.34381	11555
522.60175	11561
522.85962	11605
523.11749	11375
523.37537	11342
523.63324	11283
523.89111	11272
524.14899	11246
524.40686	11215
524.66467	11146
524.92255	11154
525.18036	11253
525.43823	11303
525.69604	11247
525.95392	11342
526.21173	11131
526.4696	10982
526.72742	11076
526.98523	10927
527.24304	11095
527.50085	11215
527.75867	10881
528.01648	10885
528.27429	10973
528.53204	10955
528.78986	10778
529.04767	10866
529.30542	10747
529.56323	10706
529.82098	10850
530.0788	10660
530.33655	10819
530.5943	10627
530.85205	10633
531.10986	10641
531.36761	10526
531.62537	10495
531.88312	10499
532.14081	10365
532.39856	10447
532.65631	10524
532.91406	10462
533.17175	10503
533.4295	10393
533.68719	10285
533.94495	10415
534.20264	10376
534.46033	10381
534.71802	10088
534.97571	10161
535.2334	9967
535.49109	10184
535.74878	10136
536.00647	10056
536.26416	10119
536.52185	10075
536.77948	10178
537.03717	10039
537.29486	10166
537.55249	9921
537.81012	9895
538.06781	9926
538.32544	9691
538.58307	9934
538.8407	9737
539.09833	9740
539.35596	9682
539.61359	9743
539.87122	9445
540.12885	9568
540.38647	9532
540.64404	9572
540.90167	9528
541.15924	9398
541.41687	9306
541.67444	9343
541.93201	9264
542.18964	9120
542.4472	9360
542.70477	9182
542.96234	9364
543.21991	9075
543.47748	9107
543.73499	9332
543.99255	9109
544.25012	9116
544.50763	9185
544.7652	8982
545.02271	9184
545.28027	8872
545.53778	8980
545.79529	8924
546.05286	8848
546.31036	9063
546.56787	8722
546.82538	8808
547.08289	8737
547.34033	8573
547.59784	8548
547.85535	8635
548.11279	8744
548.3703	8734
548.62775	8726
548.88525	8583
549.1427	8443
549.40015	8621
549.65765	8446
549.9151	8367
550.17255	8471
550.42999	8401
550.68744	8425
550.94482	8330
551.20227	8384
551.45972	8315
551.7171	8284
551.97455	8267
552.23193	8330
552.48938	8001
552.74677	8197
553.00415	8375
553.2616	8160
553.51898	7948
553.77637	7936
554.03375	8074
554.29114	7939
554.54846	8074
554.80585	8021
555.06323	8032
555.32056	8011
555.57794	7957
555.83527	7827
556.09265	7841
556.34998	8077
556.6073	7758
556.86462	7682
557.12195	7639
557.37927	7772
557.6366	7763
557.89392	7700
558.15125	7542
558.40857	7664
558.66583	7819
558.92316	7673
559.18042	7352
559.43774	7444
559.69501	7337
559.95227	7300
560.20953	7320
560.4668	7343
560.72406	7315
560.98132	7297
561.23859	7360
561.49585	7344
561.75311	7404
562.01031	6969
562.26758	7220
562.52478	7005
562.78204	7033
563.03925	7131
563.29651	7099
563.55371	7072
563.81091	7080
564.06812	6986
564.32532	6895
564.58252	6995
564.83966	7000
565.09686	6894
565.35406	6856
565.61121	6768
565.86841	6957
566.12555	6916
566.38275	6684
566.63989	6801
566.89703	6677
567.15417	6745
567.41132	6781
567.66846	6659
567.9256	6802
568.18274	6681
568.43988	6562
568.69696	6532
568.9541	6590
569.21118	6621
569.46832	6510
569.7254	6380
569.98248	6492
570.23956	6495
570.4967	6412
570.75378	6434
571.01086	6279
571.26788	6372
571.52496	6406
571.78204	6388
572.03906	6401
572.29614	6134
572.55316	6258
572.81024	6381
573.06726	6239
573.32428	6251
573.58136	6076
573.83838	6103
574.0954	6139
574.35236	6222
574.60938	6247
574.86639	6143
575.12341	6096
575.38037	6089
575.63739	6026
575.89435	6126
576.15137	6041
576.40833	6029
576.66528	5975
576.92224	5850
577.1792	5956
577.43616	5837
577.69312	5892
577.95007	5872
578.20697	5713
578.46393	5828
578.72089	5907
578.97778	5737
579.23468	5820
579.49164	5821
579.74854	5808
580.00543	5848
580.26233	5766
580.51923	5896
580.77612	5520
581.03302	5613
581.28986	5577
581.54675	5573
581.80359	5581
582.06049	5629
582.31732	5498
582.57422	5513
582.83105	5426
583.08789	5448
583.34473	5392
583.60156	5491
583.8584	5432
584.11523	5411
584.37201	5499
584.62885	5309
584.88568	5415
585.14246	5330
585.39923	5295
585.65607	5396
585.91284	5321
586.16962	5235
586.42639	5228
586.68317	5203
586.93994	5226
587.19672	5104
587.45343	5052
587.71021	5145
587.96698	5156
588.22369	5221
588.48041	5110
588.73718	5016
588.9939	5034
589.25061	5190
589.50732	4962
589.76404	5102
590.02075	5008
590.27747	4967
590.53412	4915
590.79083	4845
591.04755	4934
591.3042	4926
591.56085	4888
591.81757	4881
592.07422	4859
592.33087	4784
592.58752	4860
592.84418	4766
593.10083	4880
593.35742	4643
593.61407	4657
593.87073	4724
594.12732	4710
594.38391	4792
594.64056	4640
594.89716	4647
595.15375	4651
595.41034	4642
595.66693	4584
595.92352	4539
596.18011	4664
596.43671	4556
596.69324	4647
596.94983	4673
597.20636	4600
597.46289	4533
597.71948	4427
597.97601	4539
598.23254	4415
598.48907	4357
598.74561	4440
599.00214	4554
599.25861	4474
599.51514	4428
599.77167	4356
600.02814	4345
600.28461	4416
600.54114	4337
600.79761	4313
601.05408	4340
601.31055	4419
601.56702	4240
601.82349	4467
602.07996	4367
602.33636	4258
602.59283	4421
602.84924	4154
603.10571	4209
603.36212	4237
603.61853	4100
603.87494	4248
604.13135	4169
604.38776	4215
604.64417	4285
604.90057	4132
605.15698	4235
605.41333	4204
605.66974	4023
605.92609	4116
606.1825	4156
606.43884	3972
606.69519	4091
606.95154	4062
607.20789	4056
607.46423	4076
607.72058	4146
607.97687	3990
608.23322	4083
608.4895	4087
608.74585	3981
609.00214	4052
609.25842	3965
609.51471	3883
609.771	3938
610.02728	3886
610.28357	3972
610.53986	3961
610.79614	3839
611.05237	3920
611.30865	3882
611.56488	3873
611.82111	4048
612.07739	3843
612.33362	3960
612.58984	3822
612.84607	3814
613.10223	3856
613.35846	3715
613.61469	3824
613.87085	3680
614.12708	3836
614.38324	3730
614.63947	3757
614.89563	3797
615.15179	3622
615.40796	3642
615.66412	3801
615.92023	3615
616.17639	3752
616.43256	3689
616.68866	3777
616.94482	3597
617.20093	3737
617.45703	3637
617.71313	3733
617.9693	3468
618.22534	3642
618.48145	3573
618.73755	3585
618.99365	3464
619.24969	3623
619.5058	3680
619.76184	3562
620.01788	3501
620.27399	3583
620.53003	3506
620.78607	3424
621.04211	3611
621.2981	3476
621.55414	3547
621.81018	3534
622.06616	3419
622.3222	3474
622.57819	3536
622.83417	3435
623.09015	3497
623.34613	3524
623.60211	3443
623.85809	3529
624.11407	3428
624.37006	3407
624.62598	3365
624.88196	3474
625.13788	3465
625.3938	3367
625.64972	3388
625.9057	3507
626.16162	3406
626.41748	3529
626.6734	3456
626.92932	3452
627.18518	3324
627.4411	3415
627.69696	3484
627.95288	3381
628.20874	3244
628.4646	3206
628.72046	3374
628.97632	3294
629.23218	3341
629.48798	3461
629.74384	3307
629.99963	3243
630.25549	3210
630.51129	3275
630.76709	3277
631.02289	3221
631.27869	3258
631.53448	3270
631.79028	3211
632.04608	3222
632.30182	3167
632.55762	3147
632.81335	3158
633.06915	3131
633.32489	3200
633.58063	3313
633.83636	3271
634.0921	3255
634.34784	3289
634.60352	3120
634.85925	3191
635.11493	3213
635.37067	3140
635.62634	3236
635.88202	3097
636.1377	3097
636.39337	3183
636.64905	3149
636.90472	3096
637.1604	3204
637.41602	3170
637.67169	3003
637.92731	3057
638.18298	3091
638.4386	3080
638.69421	3121
638.94983	3185
639.20544	3061
639.46106	3014
639.71661	3100
639.97223	3089
640.22778	3128
640.4834	3125
640.73895	3037
640.99451	3062
641.25006	3065
641.50562	3162
641.76117	2997
642.01672	3095
642.27222	2983
642.52777	2968
642.78326	3031
643.03882	2963
643.29431	3020
643.5498	3029
643.8053	3049
644.06079	3034
644.31628	3004
644.57178	2984
644.82721	3019
645.0827	3039
645.33813	2959
645.59357	2983
645.84906	3026
646.10449	2922
646.35992	3119
646.61536	2924
646.87073	3056
647.12616	2979
647.38159	2977
647.63696	2818
647.8924	2915
648.14777	2991
648.40314	2938
648.65851	2989
648.91388	3028
649.16925	2935
649.42462	2972
649.67993	2859
649.9353	2961
650.19061	2868
650.44592	3026
650.70129	2941
650.9566	2888
651.21191	2903
651.46722	2970
651.72247	2934
651.97778	2933
652.23309	3005
652.48834	2915
652.74365	2958
652.9989	2906
653.25415	2897
653.5094	2942
653.76465	2893
654.0199	2859
654.27509	2878
654.53033	2919
654.78558	2965
655.04077	2792
655.29596	2891
655.55115	2855
655.80634	2862
656.06152	2857
656.31671	2854
656.5719	2838
656.82709	2835
657.08221	2850
657.3374	2800
657.59253	2832
657.84766	2904
658.10278	2873
658.35791	2793
658.61304	2864
658.86816	2843
659.12329	2865
659.37836	2725
659.63348	2826
659.88855	2857
660.14362	2862
660.39868	2912
660.65375	2870
660.90881	2877
661.16388	2839
661.41895	2944
661.67395	2771
661.92902	2905
662.18402	2899
662.43903	2810
662.69403	2873
662.94904	2768
663.20404	2804
663.45905	2822
663.71405	2845
663.96899	2850
664.224	2825
664.47894	2827
664.73395	2821
664.98889	2800
665.24384	2802
665.49878	2836
665.75366	2842
666.00861	2845
666.26355	2798
666.51843	2743
666.77338	2771
667.02826	2810
667.28314	2774
667.53802	2816
667.79291	2774
668.04779	2800
668.30261	2880
668.5575	2728
668.81232	2823
669.0672	2829
669.32202	2691
669.57684	2733
669.83167	2797
670.08649	2652
670.34131	2745
670.59613	2827
670.85089	2756
671.10571	2733
671.36047	2650
671.61523	2803
671.87	2769
672.12476	2733
672.37952	2660
672.63428	2834
672.88904	2629
673.14374	2749
673.3985	2787
673.6532	2657
673.9079	2796
674.1626	2705
674.4173	2701
674.672	2717
674.9267	2790
675.1814	2667
675.43604	2777
675.69073	2756
675.94537	2710
676.20001	2628
676.45465	2745
676.70929	2710
676.96393	2732
677.21857	2834
677.47314	2786
677.72778	2829
677.98236	2817
678.23694	2836
678.49158	2842
678.74615	2953
679.00067	3115
679.25525	3060
679.50983	3130
679.7644	3231
680.01892	3345
680.27344	3310
680.52802	3313
680.78253	3419
681.03705	3508
681.29156	3460
681.54602	3467
681.80054	3571
682.05499	3562
682.30951	3406
682.56396	3530
682.81842	3515
683.07288	3578
683.32733	3638
683.58179	3560
683.83624	3568
684.0907	3475
684.34509	3567
684.59949	3573
684.85394	3497
685.10834	3597
685.36273	3589
685.61713	3568
685.87146	3599
686.12585	3531
686.38025	3491
686.63458	3528
686.88892	3614
687.14325	3599
687.39764	3542
687.65192	3453
687.90625	3438
688.16058	3416
688.41492	3424
688.66919	3478
688.92346	3435
689.1778	3429
689.43207	3480
689.68634	3367
689.94061	3305
690.19482	3380
690.4491	3409
690.70331	3401
690.95758	3321
691.21179	3259
691.466	3385
691.72021	3308
691.97443	3450
692.22864	3258
692.48285	3271
692.737	3046
692.99121	3204
693.24536	3128
693.49951	2994
693.75366	3043
694.00781	2898
694.26196	2854
694.51611	2647
694.7702	2780
695.02435	2623
695.27844	2735
695.53253	2728
695.78668	2734
696.04077	2770
696.2948	2571
696.54889	2624
696.80298	2665
697.05701	2677
697.3111	2743
697.56512	2561
697.81915	2721
698.07318	2670
698.32721	2539
698.58124	2522
698.83521	2603
699.08923	2650
699.3432	2618
699.59723	2647
699.8512	2683
700.10516	2700
700.35913	2651
700.61304	2651
700.867	2668
701.12097	2683
701.37488	2529
701.62878	2657
701.88275	2615
702.13666	2675
702.3905	2700
702.64441	2621
702.89832	2626
703.15222	2580
703.40607	2612
703.65991	2543
703.91376	2697
704.1676	2678
704.42145	2572
704.67529	2604
704.92914	2665
705.18292	2602
705.43677	2604
705.69055	2603
705.94434	2629
706.19812	2614
706.4519	2545
706.70569	2605
706.95947	2535
707.2132	2602
707.46698	2592
707.7207	2580
707.97443	2570
708.22815	2664
708.48187	2567
708.7356	2628
708.98932	2429
709.24298	2530
709.4967	2528
709.75037	2662
710.00403	2553
710.25769	2576
710.51135	2592
710.76501	2580
711.01868	2537
711.27228	2550
711.52594	2543
711.77954	2506
712.03314	2511
712.28674	2599
712.54034	2498
712.79395	2612
713.04755	2509
713.30109	2589
713.55469	2501
713.80823	2481
714.06177	2478
714.31531	2571
714.56885	2510
714.82239	2547
715.07587	2402
715.32941	2437
715.58289	2475
715.83643	2574
716.0899	2495
716.34338	2456
716.59686	2553
716.85028	2437
717.10376	2534
717.35718	2501
717.61066	2453
717.86407	2501
718.11749	2478
718.37091	2412
718.62433	2447
718.87775	2523
719.1311	2471
719.38452	2479
719.63788	2408
719.89124	2513
720.14459	2451
720.39795	2542
720.65131	2370
720.90466	2541
721.15796	2453
721.41132	2502
721.66461	2453
721.91791	2347
722.1712	2486
722.4245	2464
722.6778	2464
722.93103	2358
723.18433	2394
723.43756	2416
723.6908	2525
723.94409	2485
724.19733	2421
724.4505	2423
724.70374	2443
724.95697	2384
725.21014	2326
725.46338	2404
725.71655	2391
725.96973	2443
726.2229	2368
726.47607	2400
726.72919	2319
726.98236	2432
727.23547	2412
727.48859	2325
727.74176	2363
727.99487	2483
728.24792	2386
728.50104	2420
728.75415	2228
729.0072	2390
729.26031	2289
729.51337	2401
729.76642	2451
730.01947	2397
730.27252	2247
730.52551	2372
730.77856	2313
731.03156	2347
731.28461	2302
731.5376	2299
731.79059	2223
732.04358	2362
732.29651	2195
732.5495	2281
732.80243	2251
733.05542	2353
733.30835	2286
733.56128	2301
733.81421	2252
734.06714	2216
734.32001	2295
734.57294	2223
734.82581	2303
735.07874	2382
735.3316	2251
735.58447	2180
735.83734	2269
736.09015	2267
736.34302	2213
736.59583	2203
736.84869	2209
737.1015	2234
737.35431	2216
737.60712	2218
737.85992	2241
738.11267	2298
738.36548	2305
738.61823	2256
738.87103	2213
739.12378	2224
739.37653	2173
739.62921	2267
739.88196	2271
740.1347	2229
740.38739	2129
740.64008	2228
740.89282	2136
741.14551	2207
741.39813	2241
741.65082	2192
741.9035	2235
742.15613	2178
742.40881	2239
742.66144	2132
742.91406	2135
743.16669	2080
743.41925	2212
743.67188	2173
743.9245	2217
744.17706	2119
744.42963	2172
744.68219	2072
744.93475	2130
745.18732	2128
745.43988	2130
745.69238	2102
745.94495	2081
746.19745	2156
746.44995	2163
746.70245	2135
746.95496	2092
747.20746	2159
747.4599	2093
747.7124	2154
747.96484	2173
748.21729	2110
748.46973	2118
748.72217	2094
748.97461	2041
749.22699	2128
749.47943	1953
749.73181	2014
749.98419	2037
750.23657	1993
750.48895	2086
750.74133	2111
750.99365	2065
751.24603	2004
751.49835	2071
751.75067	2092
752.00299	2009
752.25531	2088
752.50763	1935
752.75995	1940
753.01221	2007
753.26453	2028
753.51678	1993
753.76904	1979
754.0213	1982
754.2735	1951
754.52576	2011
754.77802	1950
755.03021	1915
755.28241	1974
755.53461	1986
755.7868	1976
756.039	1985
756.2912	2078
756.54333	2043
756.79547	2074
757.04767	1952
757.2998	1958
757.55194	1968
757.80408	1991
758.05615	1958
758.30829	1840
758.56036	1967
758.81244	1997
759.06451	1948
759.31659	1932
759.56866	1918
759.82074	1969
760.07275	1881
760.32483	1956
760.57684	1874
760.82886	1954
761.08087	1877
761.33289	1958
761.58484	1912
761.83685	1918
762.08881	1913
762.34076	1840
762.59271	1920
762.84467	1933
763.09662	1880
763.34857	1870
763.60046	1892
763.85242	1846
764.10431	1801
764.3562	1870
764.60809	1845
764.85999	1900
765.11182	1814
765.36371	1838
765.61554	1871
765.86737	1937
766.1192	1888
766.37103	1859
766.62286	1855
766.87463	1826
767.12646	1848
767.37823	1858
767.63	1803
767.88177	1795
768.13354	1891
768.38531	1926
768.63708	1803
768.88879	1834
769.1405	1821
769.39221	1823
769.64392	1825
769.89563	1793
770.14734	1824
770.39905	1722
770.6507	1812
770.90234	1747
771.15399	1828
771.40564	1752
771.65729	1806
771.90894	1807
772.16052	1757
772.41217	1754
772.66376	1688
772.91534	1742
773.16693	1770
773.41852	1746
773.67004	1846
773.92163	1767
774.17316	1740
774.42468	1715
774.67627	1703
774.92773	1664
775.17926	1644
775.43079	1689
775.68225	1688
775.93378	1729
776.18524	1750
776.43671	1735
776.68817	1653
776.93958	1722
777.19104	1703
777.44244	1742
777.69391	1646
777.94531	1684
778.19672	1660
778.44806	1687
778.69946	1672
778.95087	1613
779.20221	1737
779.45355	1603
779.7049	1595
779.95624	1664
780.20758	1673
780.45892	1669
780.71021	1532
780.96149	1622
781.21277	1651
781.46405	1549
781.71533	1565
781.96661	1622
782.2179	1548
782.46912	1609
782.72034	1598
782.97156	1600
783.22278	1624
783.474	1687
783.72522	1583
783.97638	1634
784.2276	1579
784.47876	1620
784.72992	1557
784.98108	1537
785.23218	1513
785.48334	1596
785.7345	1565
785.9856	1538
786.23669	1554
786.48779	1559
786.73889	1602
786.98993	1521
787.24103	1585
787.49207	1551
787.74316	1543
787.9942	1523
788.24518	1580
788.49622	1607
788.74725	1496
788.99823	1563
789.24927	1590
789.50024	1568
789.75122	1588
790.0022	1610
790.25311	1614
790.50409	1575
790.755	1639
791.00592	1548
791.25684	1618
791.50775	1594
791.75867	1618
792.00958	1655
792.26044	1717
792.51129	1597
792.76221	1735
793.01306	1675
793.26385	1642
793.51471	1703
793.76556	1648
794.01636	1672
794.26715	1747
794.51794	1735
794.76874	1691
795.01953	1714
795.27032	1725
795.52106	1696
795.77179	1745
796.02252	1769
796.27325	1771
796.52399	1734
796.77472	1817
797.02539	1724
797.27612	1710
797.52679	1750
797.77747	1763
798.02814	1788
798.27875	1807
798.52942	1805
798.78003	1813
799.0307	1782
799.28131	1827
799.53192	1732
799.78253	1811
800.03308	1771
800.28369	1795
800.53424	1823
800.78479	1821
801.03534	1823
801.28589	1776
801.53644	1787
801.78693	1737
802.03741	1818
802.28796	1764
802.53845	1903
802.78894	1743
803.03937	1815
803.28986	1803
803.54028	1733
803.79077	1809
804.0412	1775
804.29163	1786
804.54199	1774
804.79242	1790
805.04279	1827
805.29321	1823
805.54358	1727
805.79395	1788
806.04431	1747
806.29462	1851
806.54498	1767
806.79529	1787
807.04559	1802
807.2959	1837
807.5462	1773
807.79651	1779
808.04681	1753
808.29706	1806
808.5473	1700
808.79755	1775
809.04779	1774
809.29803	1721
809.54828	1778
809.79846	1800
810.04865	1722
810.29883	1707
810.54901	1790
810.79919	1698
811.04938	1652
811.2995	1745
811.54962	1623
811.7998	1703
812.04993	1610
812.29999	1635
812.55011	1727
812.80023	1655
813.05029	1652
813.30035	1659
813.55042	1618
813.80048	1645
814.05054	1577
814.30054	1616
814.55054	1626
814.8006	1539
815.0506	1622
815.3006	1550
815.55054	1507
815.80054	1590
816.05048	1508
816.30042	1531
816.55042	1547
816.80029	1533
817.05023	1450
817.30017	1501
817.55005	1502
817.79993	1511
818.0498	1483
818.29968	1556
818.54956	1413
818.79944	1416
819.04926	1510
819.29907	1486
819.54895	1524
819.79877	1379
820.04852	1505
820.29834	1426
820.5481	1385
820.79791	1405
821.04767	1410
821.29742	1440
821.54712	1400
821.79688	1353
822.04663	1358
822.29633	1349
822.54602	1411
822.79572	1324
823.04541	1311
823.29504	1306
823.54474	1327
823.79437	1290
824.04401	1342
824.29364	1308
824.54327	1385
824.79291	1320
825.04248	1366
825.29211	1320
825.54169	1249
825.79126	1281
826.04077	1311
