Date and Time:                Tue May 21 14:02:25.054 2024
Software Version:             4.30.30000.0
Temperature (C):              -90
Model:                        DU971P_UVB
Data Type:                    Counts
Acquisition Mode:             Single Scan
Trigger Mode:                 Internal
Exposure Time (secs):         1
Readout Mode:                 Full Vertical Binning
Horizontal binning:           1
Extended Dynamic Range:       off
Horizontally flipped:         false
Vertical Shift Speed (usecs): 9.68
Pixel Readout Rate (MHz):     3
Baseline Clamp:               ON
Clock Amplitude:              Normal
Output Amplifier:             Conventional
Serial Number:                20367
Pre-Amplifier Gain:           4x
Spurious Noise Filter Mode:   No Filter
Photon counted:               false
Data Averaging Filter Mode:   No Filter
SR193i:
Serial Number:                SR-2646
Wavelength (nm):              630
Grating Groove Density (l/mm):300
Grating Blaze:                500nm
Input Side Slit Width (um):   1000



417.6445	341
417.9035	316
418.16251	349
418.42151	328
418.68048	333
418.93948	305
419.19846	323
419.45746	334
419.71643	298
419.97543	330
420.23441	321
420.49341	331
420.75238	319
421.01135	311
421.27032	339
421.5293	320
421.78827	339
422.04724	336
422.30621	338
422.56519	315
422.82416	337
423.08313	336
423.34207	365
423.60104	353
423.85999	345
424.11896	394
424.3779	367
424.63687	433
424.89581	456
425.15475	473
425.41373	511
425.67267	533
425.93161	497
426.19055	508
426.44949	516
426.70844	545
426.96738	521
427.22629	513
427.48523	522
427.74417	545
428.00308	545
428.26202	540
428.52094	560
428.77988	547
429.03879	564
429.2977	568
429.55664	580
429.81555	583
430.07446	602
430.33337	582
430.59229	593
430.8512	586
431.11011	572
431.36899	567
431.6279	642
431.88681	608
432.14569	636
432.4046	646
432.66348	679
432.92239	624
433.18127	664
433.44016	633
433.69907	684
433.95795	716
434.21683	734
434.47571	795
434.73459	859
434.99347	984
435.25232	1127
435.5112	1296
435.77008	1556
436.02896	1713
436.28781	1984
436.54669	2176
436.80554	2456
437.06439	2556
437.32327	2834
437.58212	3057
437.84097	3236
438.09982	3497
438.35867	3708
438.61752	4061
438.87637	4188
439.13522	4412
439.39404	4573
439.65289	4748
439.91174	4896
440.17056	4962
440.42941	5236
440.68823	5434
440.94705	5583
441.20587	5683
441.46472	6029
441.72354	6267
441.98236	6504
442.24118	6595
442.5	6907
442.75879	6961
443.01761	7101
443.27643	7473
443.53522	7508
443.79404	7652
444.05283	7907
444.31165	8052
444.57043	8294
444.82922	8258
445.08801	8483
445.34683	8726
445.60562	8779
445.86441	8819
446.12317	8905
446.38196	9246
446.64075	9196
446.89954	9369
447.15829	9470
447.41708	9497
447.67584	9873
447.9346	9814
448.19339	9941
448.45215	10128
448.71091	10215
448.96967	10125
449.22842	10344
449.48718	10321
449.74594	10415
450.00467	10477
450.26343	10369
450.52219	10186
450.78091	10017
451.03967	10109
451.2984	9815
451.55713	9682
451.81589	9815
452.07462	9631
452.33334	9402
452.59207	9429
452.8508	9190
453.1095	9279
453.36823	9164
453.62695	8952
453.88565	8997
454.14438	8854
454.40308	8733
454.6618	8821
454.9205	8698
455.1792	8479
455.4379	8540
455.69659	8354
455.95529	8381
456.21399	8431
456.47269	8090
456.73138	8162
456.99005	8218
457.24875	8160
457.50742	8020
457.76611	8012
458.02478	8135
458.28345	8220
458.54211	7908
458.80078	7994
459.05945	7997
459.31812	7921
459.57678	8082
459.83545	7971
460.09409	8013
460.35275	7996
460.61139	8015
460.87006	8025
461.12869	8211
461.38733	8001
461.64597	7865
461.9046	8047
462.16324	8093
462.42188	7992
462.68051	8107
462.93915	8056
463.19775	8103
463.45639	8099
463.715	8161
463.97363	8304
464.23224	8115
464.49084	8251
464.74945	8426
465.00806	8427
465.26666	8581
465.52527	8497
465.78387	8594
466.04248	8684
466.30106	8620
466.55966	8726
466.81824	8667
467.07684	8984
467.33542	9124
467.59399	8979
467.85257	9317
468.11115	9065
468.36972	9244
468.6283	9393
468.88684	9478
469.14542	9486
469.40399	9587
469.66254	9728
469.92108	9681
470.17966	9675
470.4382	9737
470.69675	10001
470.95529	10057
471.21384	10186
471.47238	10371
471.7309	10226
471.98944	10311
472.24799	10505
472.5065	10304
472.76501	10535
473.02356	10610
473.28207	10631
473.54059	10618
473.7991	10865
474.05762	11024
474.31613	11074
474.57462	11110
474.83313	11236
475.09161	11034
475.35013	11286
475.60861	11367
475.8671	11206
476.12561	11458
476.38409	11335
476.64258	11703
476.90106	11635
477.15952	11481
477.418	11528
477.67648	11771
477.93494	11557
478.19339	11690
478.45187	11777
478.71033	11900
478.96878	11797
479.22723	11818
479.48569	11922
479.74414	12007
480.00259	11862
480.26102	12090
480.51947	12030
480.77789	12042
481.03635	12053
481.29477	12002
481.55319	11956
481.81161	11977
482.07004	11972
482.32846	12144
482.58688	12062
482.84528	12227
483.1037	12075
483.36209	12285
483.62051	12283
483.87891	12071
484.1373	12218
484.39569	12462
484.65408	12112
484.91248	12290
485.17087	12335
485.42923	12052
485.68762	12264
485.94598	12157
486.20438	12065
486.46274	12525
486.7211	12378
486.97946	12417
487.23782	12252
487.49619	12145
487.75455	12335
488.01291	12378
488.27124	12282
488.5296	11990
488.78793	12235
489.04626	12399
489.3046	12329
489.56293	12322
489.82126	12284
490.07959	12326
490.33792	12220
490.59622	12290
490.85455	12263
491.11285	12279
491.37119	12241
491.62949	12146
491.88779	12374
492.14609	12304
492.40439	12254
492.66269	12214
492.92096	12266
493.17926	12199
493.43756	12197
493.69583	12431
493.9541	12198
494.21237	12350
494.47064	12395
494.72891	12136
494.98718	12282
495.24545	12187
495.50372	12298
495.76196	12177
496.0202	12276
496.27847	12038
496.53671	12110
496.79495	12115
497.05319	12260
497.31143	12333
497.56967	11980
497.82788	12009
498.08612	12185
498.34433	12297
498.60257	12043
498.86078	12054
499.11899	12175
499.3772	12099
499.63541	11992
499.89362	11917
500.15179	12093
500.41	12224
500.66818	12094
500.92639	12193
501.18457	12064
501.44275	12065
501.70093	12074
501.95911	11952
502.21729	11941
502.47546	11942
502.73361	12374
502.99179	12037
503.24994	11954
503.50809	11923
503.76624	12199
504.02438	12087
504.28253	12136
504.54068	12067
504.79883	12012
505.05695	12038
505.31509	12147
505.57321	11882
505.83133	12147
506.08945	12182
506.34756	11954
506.60568	11955
506.8638	11971
507.12192	11727
507.38	11849
507.63812	11692
507.89621	11764
508.1543	11775
508.41238	11807
508.67047	11719
508.92856	11655
509.18665	11653
509.4447	11717
509.70279	11724
509.96085	11504
510.2189	11801
510.47699	11887
510.73505	11721
510.9931	11577
511.25113	11586
511.50919	11491
511.76724	11512
512.02527	11620
512.28333	11710
512.54132	11325
512.79938	11452
513.05737	11239
513.31543	11515
513.57343	11468
513.83142	11595
514.08948	11541
514.34747	11385
514.60547	11138
514.86346	11277
515.12146	11244
515.37946	11110
515.63745	11173
515.89545	11272
516.15338	11194
516.41138	11153
516.66937	11102
516.92731	11332
517.1853	11325
517.44324	11220
517.70123	11109
517.95917	11237
518.2171	11001
518.4751	10980
518.73303	10814
518.99097	11091
519.2489	11083
519.50684	10868
519.76477	10776
520.02271	10641
520.28058	10680
520.53851	10778
520.79645	10796
521.05432	10803
521.31226	10964
521.57013	10831
521.82806	10663
522.08594	10675
522.34381	10687
522.60175	10617
522.85962	10510
523.11749	10568
523.37537	10391
523.63324	10600
523.89111	10443
524.14899	10317
524.40686	10479
524.66467	10474
524.92255	10228
525.18036	10295
525.43823	10257
525.69604	10194
525.95392	10223
526.21173	10042
526.4696	10208
526.72742	10337
526.98523	9935
527.24304	10068
527.50085	10103
527.75867	10248
528.01648	9977
528.27429	9794
528.53204	10123
528.78986	9956
529.04767	9774
529.30542	9881
529.56323	9867
529.82098	9933
530.0788	9970
530.33655	9655
530.5943	9935
530.85205	9878
531.10986	9760
531.36761	9658
531.62537	9723
531.88312	9562
532.14081	9515
532.39856	9559
532.65631	9530
532.91406	9377
533.17175	9300
533.4295	9397
533.68719	9543
533.94495	9404
534.20264	9304
534.46033	9313
534.71802	9169
534.97571	9111
535.2334	9313
535.49109	9259
535.74878	9101
536.00647	9273
536.26416	9086
536.52185	9060
536.77948	9047
537.03717	8899
537.29486	8713
537.55249	8954
537.81012	8903
538.06781	8984
538.32544	8744
538.58307	8836
538.8407	8729
539.09833	8587
539.35596	8747
539.61359	8597
539.87122	8585
540.12885	8419
540.38647	8711
540.64404	8588
540.90167	8443
541.15924	8494
541.41687	8582
541.67444	8379
541.93201	8277
542.18964	8366
542.4472	8441
542.70477	8414
542.96234	8293
543.21991	8205
543.47748	8118
543.73499	8180
543.99255	8158
544.25012	8126
544.50763	8036
544.7652	8015
545.02271	8062
545.28027	7801
545.53778	7967
545.79529	7880
546.05286	7901
546.31036	7788
546.56787	7826
546.82538	7872
547.08289	7649
547.34033	7695
547.59784	7621
547.85535	7734
548.11279	7697
548.3703	7527
548.62775	7599
548.88525	7556
549.1427	7692
549.40015	7334
549.65765	7429
549.9151	7579
550.17255	7485
550.42999	7323
550.68744	7377
550.94482	7544
551.20227	7113
551.45972	7243
551.7171	7147
551.97455	7219
552.23193	7246
552.48938	7239
552.74677	6924
553.00415	7087
553.2616	7096
553.51898	6909
553.77637	7055
554.03375	6892
554.29114	7028
554.54846	6911
554.80585	6924
555.06323	6883
555.32056	6708
555.57794	6725
555.83527	6787
556.09265	6596
556.34998	6610
556.6073	6652
556.86462	6663
557.12195	6593
557.37927	6454
557.6366	6501
557.89392	6602
558.15125	6498
558.40857	6517
558.66583	6396
558.92316	6407
559.18042	6358
559.43774	6337
559.69501	6354
559.95227	6242
560.20953	6292
560.4668	6245
560.72406	6247
560.98132	6232
561.23859	6067
561.49585	6021
561.75311	6007
562.01031	6092
562.26758	5913
562.52478	6130
562.78204	6051
563.03925	5991
563.29651	6064
563.55371	6051
563.81091	5940
564.06812	5763
564.32532	5985
564.58252	5929
564.83966	5792
565.09686	5782
565.35406	5789
565.61121	5697
565.86841	5683
566.12555	5652
566.38275	5819
566.63989	5773
566.89703	5684
567.15417	5602
567.41132	5420
567.66846	5686
567.9256	5532
568.18274	5394
568.43988	5537
568.69696	5381
568.9541	5347
569.21118	5444
569.46832	5445
569.7254	5354
569.98248	5298
570.23956	5239
570.4967	5240
570.75378	5192
571.01086	5191
571.26788	5214
571.52496	5106
571.78204	5297
572.03906	5168
572.29614	5111
572.55316	4941
572.81024	5028
573.06726	4892
573.32428	5048
573.58136	5002
573.83838	4931
574.0954	4979
574.35236	4834
574.60938	4876
574.86639	4897
575.12341	4878
575.38037	4908
575.63739	4719
575.89435	4921
576.15137	4812
576.40833	4726
576.66528	4546
576.92224	4859
577.1792	4671
577.43616	4680
577.69312	4698
577.95007	4756
578.20697	4617
578.46393	4468
578.72089	4640
578.97778	4745
579.23468	4524
579.49164	4481
579.74854	4587
580.00543	4531
580.26233	4543
580.51923	4470
580.77612	4350
581.03302	4376
581.28986	4430
581.54675	4451
581.80359	4235
582.06049	4215
582.31732	4307
582.57422	4379
582.83105	4291
583.08789	4149
583.34473	4224
583.60156	4105
583.8584	4060
584.11523	4220
584.37201	4142
584.62885	4139
584.88568	4055
585.14246	4121
585.39923	4035
585.65607	4103
585.91284	4077
586.16962	3990
586.42639	4074
586.68317	4138
586.93994	4013
587.19672	3960
587.45343	3890
587.71021	3934
587.96698	3868
588.22369	3833
588.48041	3879
588.73718	3795
588.9939	3857
589.25061	3851
589.50732	3767
589.76404	3796
590.02075	3777
590.27747	3736
590.53412	3631
590.79083	3668
591.04755	3644
591.3042	3616
591.56085	3575
591.81757	3671
592.07422	3638
592.33087	3676
592.58752	3516
592.84418	3586
593.10083	3544
593.35742	3572
593.61407	3450
593.87073	3508
594.12732	3492
594.38391	3464
594.64056	3451
594.89716	3470
595.15375	3418
595.41034	3325
595.66693	3520
595.92352	3221
596.18011	3383
596.43671	3296
596.69324	3308
596.94983	3334
597.20636	3303
597.46289	3287
597.71948	3362
597.97601	3228
598.23254	3218
598.48907	3214
598.74561	3198
599.00214	3200
599.25861	3160
599.51514	3106
599.77167	3146
600.02814	3175
600.28461	3140
600.54114	3155
600.79761	3157
601.05408	3080
601.31055	2984
601.56702	3039
601.82349	3027
602.07996	3012
602.33636	2945
602.59283	2997
602.84924	3062
603.10571	2919
603.36212	2945
603.61853	2908
603.87494	2974
604.13135	2893
604.38776	2831
604.64417	2864
604.90057	2902
605.15698	2899
605.41333	2792
605.66974	2847
605.92609	2752
606.1825	2845
606.43884	2810
606.69519	2728
606.95154	2766
607.20789	2774
607.46423	2741
607.72058	2757
607.97687	2745
608.23322	2680
608.4895	2777
608.74585	2784
609.00214	2668
609.25842	2633
609.51471	2601
609.771	2587
610.02728	2628
610.28357	2621
610.53986	2597
610.79614	2573
611.05237	2539
611.30865	2628
611.56488	2569
611.82111	2597
612.07739	2502
612.33362	2553
612.58984	2552
612.84607	2547
613.10223	2560
613.35846	2445
613.61469	2465
613.87085	2407
614.12708	2472
614.38324	2440
614.63947	2391
614.89563	2404
615.15179	2422
615.40796	2374
615.66412	2308
615.92023	2320
616.17639	2409
616.43256	2251
616.68866	2309
616.94482	2241
617.20093	2334
617.45703	2265
617.71313	2232
617.9693	2324
618.22534	2237
618.48145	2186
618.73755	2159
618.99365	2199
619.24969	2245
619.5058	2233
619.76184	2231
620.01788	2158
620.27399	2257
620.53003	2244
620.78607	2086
621.04211	2193
621.2981	2225
621.55414	2177
621.81018	2166
622.06616	2079
622.3222	2092
622.57819	2171
622.83417	2075
623.09015	2116
623.34613	2118
623.60211	2062
623.85809	2114
624.11407	2054
624.37006	1999
624.62598	2046
624.88196	2044
625.13788	1988
625.3938	2103
625.64972	2005
625.9057	2055
626.16162	1930
626.41748	1915
626.6734	2020
626.92932	1926
627.18518	1928
627.4411	1986
627.69696	1827
627.95288	1918
628.20874	1904
628.4646	1925
628.72046	1833
628.97632	1894
629.23218	1858
629.48798	1887
629.74384	1885
629.99963	1848
630.25549	1758
630.51129	1892
630.76709	1819
631.02289	1756
631.27869	1746
631.53448	1848
631.79028	1853
632.04608	1806
632.30182	1757
632.55762	1782
632.81335	1794
633.06915	1769
633.32489	1760
633.58063	1806
633.83636	1750
634.0921	1819
634.34784	1783
634.60352	1742
634.85925	1763
635.11493	1700
635.37067	1686
635.62634	1631
635.88202	1692
636.1377	1677
636.39337	1677
636.64905	1643
636.90472	1679
637.1604	1676
637.41602	1647
637.67169	1786
637.92731	1705
638.18298	1687
638.4386	1618
638.69421	1592
638.94983	1699
639.20544	1557
639.46106	1633
639.71661	1535
639.97223	1663
640.22778	1587
640.4834	1584
640.73895	1636
640.99451	1551
641.25006	1612
641.50562	1578
641.76117	1568
642.01672	1544
642.27222	1505
642.52777	1621
642.78326	1514
643.03882	1529
643.29431	1439
643.5498	1521
643.8053	1534
644.06079	1552
644.31628	1478
644.57178	1522
644.82721	1521
645.0827	1501
645.33813	1489
645.59357	1564
645.84906	1529
646.10449	1475
646.35992	1387
646.61536	1458
646.87073	1400
647.12616	1473
647.38159	1457
647.63696	1452
647.8924	1387
648.14777	1418
648.40314	1429
648.65851	1376
648.91388	1355
649.16925	1367
649.42462	1445
649.67993	1391
649.9353	1403
650.19061	1392
650.44592	1409
650.70129	1368
650.9566	1396
651.21191	1344
651.46722	1308
651.72247	1351
651.97778	1344
652.23309	1391
652.48834	1332
652.74365	1358
652.9989	1296
653.25415	1390
653.5094	1276
653.76465	1293
654.0199	1282
654.27509	1276
654.53033	1285
654.78558	1194
655.04077	1324
655.29596	1242
655.55115	1234
655.80634	1341
656.06152	1225
656.31671	1221
656.5719	1253
656.82709	1227
657.08221	1175
657.3374	1203
657.59253	1265
657.84766	1296
658.10278	1226
658.35791	1228
658.61304	1200
658.86816	1232
659.12329	1156
659.37836	1172
659.63348	1176
659.88855	1218
660.14362	1133
660.39868	1207
660.65375	1211
660.90881	1223
661.16388	1144
661.41895	1160
661.67395	1192
661.92902	1155
662.18402	1163
662.43903	1132
662.69403	1141
662.94904	1197
663.20404	1126
663.45905	1071
663.71405	1141
663.96899	1169
664.224	1100
664.47894	1051
664.73395	1179
664.98889	1120
665.24384	1142
665.49878	1104
665.75366	1077
666.00861	1020
666.26355	1085
666.51843	1131
666.77338	1015
667.02826	1029
667.28314	1042
667.53802	1172
667.79291	1057
668.04779	1084
668.30261	1043
668.5575	1015
668.81232	1029
669.0672	1026
669.32202	1002
669.57684	1031
669.83167	1031
670.08649	1059
670.34131	1008
670.59613	1005
670.85089	1042
671.10571	977
671.36047	1006
671.61523	1043
671.87	993
672.12476	999
672.37952	1009
672.63428	1043
672.88904	994
673.14374	1012
673.3985	1032
673.6532	964
673.9079	938
674.1626	952
674.4173	927
674.672	965
674.9267	946
675.1814	1008
675.43604	958
675.69073	945
675.94537	962
676.20001	925
676.45465	1006
676.70929	960
676.96393	954
677.21857	912
677.47314	920
677.72778	912
677.98236	934
678.23694	938
678.49158	929
678.74615	899
679.00067	909
679.25525	895
679.50983	898
679.7644	914
680.01892	925
680.27344	937
680.52802	925
680.78253	890
681.03705	899
681.29156	845
681.54602	937
681.80054	875
682.05499	911
682.30951	869
682.56396	873
682.81842	917
683.07288	906
683.32733	853
683.58179	855
683.83624	869
684.0907	879
684.34509	857
684.59949	871
684.85394	833
685.10834	854
685.36273	882
685.61713	879
685.87146	863
686.12585	800
686.38025	829
686.63458	862
686.88892	804
687.14325	797
687.39764	848
687.65192	821
687.90625	810
688.16058	822
688.41492	811
688.66919	825
688.92346	808
689.1778	795
689.43207	803
689.68634	801
689.94061	810
690.19482	804
690.4491	806
690.70331	816
690.95758	722
691.21179	772
691.466	820
691.72021	804
691.97443	787
692.22864	805
692.48285	740
692.737	781
692.99121	775
693.24536	798
693.49951	819
693.75366	772
694.00781	808
694.26196	747
694.51611	714
694.7702	775
695.02435	746
695.27844	707
695.53253	710
695.78668	745
696.04077	762
696.2948	742
696.54889	758
696.80298	721
697.05701	761
697.3111	711
697.56512	772
697.81915	739
698.07318	708
698.32721	700
698.58124	727
698.83521	695
699.08923	755
699.3432	751
699.59723	726
699.8512	669
700.10516	683
700.35913	738
700.61304	720
700.867	739
701.12097	647
701.37488	699
701.62878	702
701.88275	698
702.13666	692
702.3905	711
702.64441	685
702.89832	720
703.15222	700
703.40607	672
703.65991	720
703.91376	684
704.1676	690
704.42145	683
704.67529	681
704.92914	708
705.18292	642
705.43677	685
705.69055	663
705.94434	710
706.19812	654
706.4519	715
706.70569	677
706.95947	662
707.2132	647
707.46698	685
707.7207	676
707.97443	655
708.22815	673
708.48187	640
708.7356	634
708.98932	652
709.24298	612
709.4967	606
709.75037	613
710.00403	632
710.25769	594
710.51135	647
710.76501	602
711.01868	633
711.27228	640
711.52594	582
711.77954	604
712.03314	590
712.28674	606
712.54034	565
712.79395	632
713.04755	566
713.30109	568
713.55469	586
713.80823	612
714.06177	621
714.31531	581
714.56885	591
714.82239	560
715.07587	594
715.32941	590
715.58289	580
715.83643	566
716.0899	567
716.34338	591
716.59686	592
716.85028	608
717.10376	577
717.35718	612
717.61066	564
717.86407	554
718.11749	590
718.37091	571
718.62433	584
718.87775	564
719.1311	559
719.38452	584
719.63788	578
719.89124	519
720.14459	555
720.39795	578
720.65131	582
720.90466	535
721.15796	586
721.41132	560
721.66461	569
721.91791	574
722.1712	553
722.4245	545
722.6778	558
722.93103	578
723.18433	540
723.43756	554
723.6908	546
723.94409	523
724.19733	554
724.4505	575
724.70374	547
724.95697	563
725.21014	543
725.46338	526
725.71655	527
725.96973	549
726.2229	548
726.47607	563
726.72919	530
726.98236	553
727.23547	530
727.48859	540
727.74176	512
727.99487	533
728.24792	518
728.50104	533
728.75415	507
729.0072	514
729.26031	542
729.51337	563
729.76642	505
730.01947	499
730.27252	495
730.52551	516
730.77856	483
731.03156	510
731.28461	510
731.5376	506
731.79059	542
732.04358	533
732.29651	513
732.5495	477
732.80243	515
733.05542	537
733.30835	554
733.56128	536
733.81421	503
734.06714	504
734.32001	499
734.57294	519
734.82581	498
735.07874	482
735.3316	502
735.58447	495
735.83734	503
736.09015	474
736.34302	494
736.59583	502
736.84869	491
737.1015	496
737.35431	475
737.60712	480
737.85992	479
738.11267	460
738.36548	478
738.61823	462
738.87103	439
739.12378	469
739.37653	491
739.62921	487
739.88196	461
740.1347	474
740.38739	448
740.64008	489
740.89282	506
741.14551	464
741.39813	486
741.65082	462
741.9035	459
742.15613	449
742.40881	484
742.66144	450
742.91406	457
743.16669	450
743.41925	455
743.67188	473
743.9245	481
744.17706	469
744.42963	415
744.68219	480
744.93475	446
745.18732	434
745.43988	456
745.69238	467
745.94495	447
746.19745	441
746.44995	445
746.70245	449
746.95496	431
747.20746	462
747.4599	425
747.7124	420
747.96484	432
748.21729	474
748.46973	438
748.72217	424
748.97461	435
749.22699	442
749.47943	448
749.73181	448
749.98419	432
750.23657	412
750.48895	451
750.74133	413
750.99365	430
751.24603	423
751.49835	428
751.75067	430
752.00299	445
752.25531	404
752.50763	444
752.75995	422
753.01221	407
753.26453	412
753.51678	419
753.76904	431
754.0213	422
754.2735	388
754.52576	404
754.77802	404
755.03021	393
755.28241	418
755.53461	401
755.7868	422
756.039	433
756.2912	415
756.54333	428
756.79547	422
757.04767	410
757.2998	410
757.55194	435
757.80408	406
758.05615	419
758.30829	429
758.56036	428
758.81244	429
759.06451	392
759.31659	387
759.56866	416
759.82074	404
760.07275	397
760.32483	420
760.57684	414
760.82886	427
761.08087	398
761.33289	383
761.58484	397
761.83685	401
762.08881	396
762.34076	408
762.59271	397
762.84467	379
763.09662	378
763.34857	411
763.60046	388
763.85242	382
764.10431	405
764.3562	393
764.60809	395
764.85999	381
765.11182	396
765.36371	414
765.61554	402
765.86737	426
766.1192	401
766.37103	393
766.62286	393
766.87463	389
767.12646	396
767.37823	383
767.63	399
767.88177	384
768.13354	361
768.38531	378
768.63708	386
768.88879	406
769.1405	397
769.39221	354
769.64392	370
769.89563	387
770.14734	345
770.39905	375
770.6507	361
770.90234	383
771.15399	405
771.40564	364
771.65729	408
771.90894	404
772.16052	400
772.41217	397
772.66376	365
772.91534	400
773.16693	374
773.41852	356
773.67004	366
773.92163	366
774.17316	361
774.42468	361
774.67627	398
774.92773	382
775.17926	400
775.43079	376
775.68225	382
775.93378	366
776.18524	357
776.43671	368
776.68817	375
776.93958	383
777.19104	383
777.44244	383
777.69391	365
777.94531	384
778.19672	371
778.44806	348
778.69946	353
778.95087	352
779.20221	367
779.45355	352
779.7049	372
779.95624	333
780.20758	362
780.45892	371
780.71021	389
780.96149	374
781.21277	363
781.46405	357
781.71533	369
781.96661	364
782.2179	361
782.46912	367
782.72034	371
782.97156	349
783.22278	355
783.474	345
783.72522	367
783.97638	337
784.2276	339
784.47876	344
784.72992	360
784.98108	344
785.23218	370
785.48334	356
785.7345	341
785.9856	362
786.23669	334
786.48779	353
786.73889	354
786.98993	347
787.24103	332
787.49207	370
787.74316	376
787.9942	369
788.24518	353
788.49622	329
788.74725	344
788.99823	336
789.24927	358
789.50024	347
789.75122	335
790.0022	357
790.25311	336
790.50409	350
790.755	339
791.00592	353
791.25684	348
791.50775	331
791.75867	357
792.00958	329
792.26044	330
792.51129	329
792.76221	357
793.01306	349
793.26385	344
793.51471	357
793.76556	345
794.01636	345
794.26715	344
794.51794	349
794.76874	328
795.01953	351
795.27032	343
795.52106	354
795.77179	343
796.02252	364
796.27325	309
796.52399	329
796.77472	345
797.02539	356
797.27612	334
797.52679	342
797.77747	342
798.02814	352
798.27875	331
798.52942	351
798.78003	353
799.0307	339
799.28131	347
799.53192	338
799.78253	339
800.03308	350
800.28369	313
800.53424	345
800.78479	346
801.03534	320
801.28589	330
801.53644	335
801.78693	333
802.03741	331
802.28796	357
802.53845	326
802.78894	363
803.03937	355
803.28986	323
803.54028	329
803.79077	328
804.0412	337
804.29163	338
804.54199	330
804.79242	340
805.04279	337
805.29321	336
805.54358	350
805.79395	323
806.04431	340
806.29462	338
806.54498	335
806.79529	342
807.04559	320
807.2959	323
807.5462	337
807.79651	344
808.04681	347
808.29706	325
808.5473	326
808.79755	355
809.04779	349
809.29803	320
809.54828	333
809.79846	349
810.04865	338
810.29883	323
810.54901	326
810.79919	329
811.04938	340
811.2995	321
811.54962	331
811.7998	324
812.04993	330
812.29999	327
812.55011	332
812.80023	339
813.05029	321
813.30035	334
813.55042	323
813.80048	335
814.05054	326
814.30054	314
814.55054	343
814.8006	346
815.0506	320
815.3006	313
815.55054	330
815.80054	298
816.05048	325
816.30042	334
816.55042	340
816.80029	332
817.05023	313
817.30017	329
817.55005	318
817.79993	296
818.0498	313
818.29968	303
818.54956	333
818.79944	337
819.04926	313
819.29907	299
819.54895	343
819.79877	304
820.04852	330
820.29834	328
820.5481	310
820.79791	306
821.04767	323
821.29742	353
821.54712	341
821.79688	321
822.04663	326
822.29633	311
822.54602	328
822.79572	318
823.04541	317
823.29504	316
823.54474	326
823.79437	319
824.04401	338
824.29364	320
824.54327	315
824.79291	311
825.04248	319
825.29211	320
825.54169	332
825.79126	334
826.04077	304
