Date and Time:                Tue May 21 13:13:41.119 2024
Software Version:             4.30.30000.0
Temperature (C):              -90
Model:                        DU971P_UVB
Data Type:                    Counts
Acquisition Mode:             Single Scan
Trigger Mode:                 Internal
Exposure Time (secs):         1
Readout Mode:                 Full Vertical Binning
Horizontal binning:           1
Extended Dynamic Range:       off
Horizontally flipped:         false
Vertical Shift Speed (usecs): 9.68
Pixel Readout Rate (MHz):     3
Baseline Clamp:               ON
Clock Amplitude:              Normal
Output Amplifier:             Conventional
Serial Number:                20367
Pre-Amplifier Gain:           4x
Spurious Noise Filter Mode:   No Filter
Photon counted:               false
Data Averaging Filter Mode:   No Filter
SR193i:
Serial Number:                SR-2646
Wavelength (nm):              630
Grating Groove Density (l/mm):300
Grating Blaze:                500nm
Input Side Slit Width (um):   1000



417.6445	336
417.9035	334
418.16251	334
418.42151	327
418.68048	333
418.93948	346
419.19846	321
419.45746	335
419.71643	339
419.97543	324
420.23441	325
420.49341	341
420.75238	344
421.01135	318
421.27032	350
421.5293	332
421.78827	348
422.04724	319
422.30621	342
422.56519	334
422.82416	337
423.08313	332
423.34207	346
423.60104	355
423.85999	367
424.11896	378
424.3779	431
424.63687	409
424.89581	444
425.15475	452
425.41373	484
425.67267	481
425.93161	453
426.19055	502
426.44949	492
426.70844	489
426.96738	500
427.22629	520
427.48523	498
427.74417	533
428.00308	537
428.26202	534
428.52094	508
428.77988	528
429.03879	563
429.2977	514
429.55664	514
429.81555	521
430.07446	558
430.33337	557
430.59229	560
430.8512	555
431.11011	532
431.36899	621
431.6279	608
431.88681	547
432.14569	568
432.4046	633
432.66348	574
432.92239	632
433.18127	580
433.44016	580
433.69907	601
433.95795	618
434.21683	659
434.47571	691
434.73459	740
434.99347	849
435.25232	1000
435.5112	1160
435.77008	1257
436.02896	1465
436.28781	1622
436.54669	1732
436.80554	1985
437.06439	2253
437.32327	2459
437.58212	2600
437.84097	2782
438.09982	3001
438.35867	3152
438.61752	3474
438.87637	3593
439.13522	3695
439.39404	3871
439.65289	3999
439.91174	4265
440.17056	4338
440.42941	4555
440.68823	4571
440.94705	4719
441.20587	4960
441.46472	4981
441.72354	5165
441.98236	5369
442.24118	5642
442.5	5675
442.75879	6071
443.01761	6014
443.27643	6091
443.53522	6300
443.79404	6628
444.05283	6788
444.31165	6873
444.57043	6940
444.82922	7033
445.08801	7058
445.34683	7383
445.60562	7452
445.86441	7492
446.12317	7702
446.38196	7859
446.64075	7758
446.89954	7845
447.15829	8093
447.41708	8304
447.67584	8329
447.9346	8238
448.19339	8405
448.45215	8429
448.71091	8808
448.96967	8662
449.22842	8774
449.48718	8979
449.74594	8781
450.00467	8814
450.26343	8845
450.52219	8835
450.78091	8602
451.03967	8753
451.2984	8609
451.55713	8544
451.81589	8545
452.07462	8326
452.33334	8329
452.59207	8324
452.8508	8329
453.1095	8257
453.36823	8253
453.62695	8170
453.88565	8127
454.14438	7999
454.40308	8092
454.6618	8008
454.9205	8139
455.1792	7982
455.4379	8029
455.69659	7906
455.95529	8034
456.21399	7948
456.47269	7985
456.73138	7936
456.99005	7915
457.24875	7778
457.50742	8199
457.76611	7993
458.02478	7950
458.28345	7939
458.54211	8286
458.80078	7793
459.05945	7945
459.31812	8028
459.57678	8029
459.83545	8217
460.09409	8072
460.35275	8200
460.61139	8308
460.87006	8283
461.12869	8216
461.38733	8320
461.64597	8553
461.9046	8630
462.16324	8579
462.42188	8517
462.68051	8693
462.93915	8711
463.19775	8841
463.45639	8658
463.715	9111
463.97363	8941
464.23224	9085
464.49084	9151
464.74945	9138
465.00806	9076
465.26666	9314
465.52527	9354
465.78387	9582
466.04248	9518
466.30106	9708
466.55966	9842
466.81824	10002
467.07684	9847
467.33542	10091
467.59399	10254
467.85257	10134
468.11115	10426
468.36972	10632
468.6283	10622
468.88684	10624
469.14542	10606
469.40399	11027
469.66254	10983
469.92108	11322
470.17966	11147
470.4382	11408
470.69675	11217
470.95529	11571
471.21384	11593
471.47238	11857
471.7309	12066
471.98944	11973
472.24799	12022
472.5065	12352
472.76501	12362
473.02356	12398
473.28207	12518
473.54059	12409
473.7991	12436
474.05762	12613
474.31613	12866
474.57462	13015
474.83313	12808
475.09161	13103
475.35013	12999
475.60861	13337
475.8671	13285
476.12561	13362
476.38409	13539
476.64258	13604
476.90106	13788
477.15952	13714
477.418	13784
477.67648	13808
477.93494	13700
478.19339	14125
478.45187	14038
478.71033	14222
478.96878	14093
479.22723	14036
479.48569	14060
479.74414	14188
480.00259	14462
480.26102	14351
480.51947	14318
480.77789	14232
481.03635	14536
481.29477	14460
481.55319	14333
481.81161	14358
482.07004	14354
482.32846	14615
482.58688	14496
482.84528	14557
483.1037	14454
483.36209	14592
483.62051	14491
483.87891	14704
484.1373	14795
484.39569	14914
484.65408	14707
484.91248	14529
485.17087	14594
485.42923	14758
485.68762	14712
485.94598	14613
486.20438	14881
486.46274	14727
486.7211	14723
486.97946	14956
487.23782	14586
487.49619	14914
487.75455	14960
488.01291	14679
488.27124	14736
488.5296	14702
488.78793	14886
489.04626	14881
489.3046	15014
489.56293	14963
489.82126	15098
490.07959	14937
490.33792	14779
490.59622	15122
490.85455	14922
491.11285	14873
491.37119	15053
491.62949	14867
491.88779	14875
492.14609	15116
492.40439	14736
492.66269	14675
492.92096	14807
493.17926	14647
493.43756	15185
493.69583	14821
493.9541	14892
494.21237	15177
494.47064	14811
494.72891	14903
494.98718	14848
495.24545	14829
495.50372	15049
495.76196	14818
496.0202	15066
496.27847	14909
496.53671	14991
496.79495	15087
497.05319	15142
497.31143	14872
497.56967	14988
497.82788	14909
498.08612	14962
498.34433	14915
498.60257	14979
498.86078	14989
499.11899	15022
499.3772	15010
499.63541	14941
499.89362	15024
500.15179	14818
500.41	14956
500.66818	14991
500.92639	14993
501.18457	14905
501.44275	14920
501.70093	14932
501.95911	14847
502.21729	15030
502.47546	14786
502.73361	14932
502.99179	14971
503.24994	14716
503.50809	14873
503.76624	14803
504.02438	14911
504.28253	15078
504.54068	14951
504.79883	14752
505.05695	14795
505.31509	14524
505.57321	14901
505.83133	14670
506.08945	14485
506.34756	14846
506.60568	14607
506.8638	14640
507.12192	14710
507.38	14618
507.63812	14785
507.89621	14833
508.1543	14612
508.41238	14562
508.67047	14599
508.92856	14660
509.18665	14727
509.4447	14628
509.70279	14568
509.96085	14350
510.2189	14576
510.47699	14606
510.73505	14360
510.9931	14497
511.25113	14359
511.50919	14398
511.76724	14446
512.02527	14487
512.28333	14457
512.54132	14299
512.79938	14249
513.05737	14328
513.31543	14317
513.57343	14424
513.83142	14225
514.08948	14419
514.34747	14172
514.60547	14334
514.86346	14333
515.12146	14179
515.37946	13950
515.63745	14120
515.89545	14106
516.15338	13946
516.41138	14008
516.66937	14021
516.92731	14194
517.1853	14145
517.44324	14162
517.70123	14055
517.95917	13956
518.2171	14049
518.4751	14040
518.73303	13962
518.99097	13675
519.2489	13843
519.50684	13685
519.76477	13998
520.02271	13769
520.28058	13519
520.53851	13774
520.79645	13530
521.05432	13751
521.31226	13688
521.57013	13560
521.82806	13640
522.08594	13607
522.34381	13712
522.60175	13385
522.85962	13367
523.11749	13373
523.37537	13400
523.63324	13202
523.89111	13355
524.14899	13145
524.40686	13150
524.66467	12902
524.92255	13105
525.18036	13093
525.43823	12857
525.69604	13035
525.95392	13017
526.21173	12940
526.4696	13068
526.72742	13212
526.98523	13023
527.24304	13080
527.50085	12838
527.75867	12657
528.01648	12642
528.27429	12895
528.53204	12691
528.78986	12347
529.04767	12471
529.30542	12424
529.56323	12743
529.82098	12608
530.0788	12301
530.33655	12538
530.5943	12369
530.85205	12339
531.10986	12459
531.36761	12385
531.62537	12318
531.88312	12176
532.14081	12353
532.39856	12372
532.65631	12266
532.91406	12008
533.17175	12051
533.4295	11989
533.68719	12183
533.94495	11895
534.20264	11875
534.46033	11976
534.71802	12085
534.97571	11722
535.2334	11751
535.49109	11672
535.74878	11703
536.00647	11713
536.26416	11524
536.52185	11680
536.77948	11665
537.03717	11368
537.29486	11519
537.55249	11718
537.81012	11503
538.06781	11425
538.32544	11401
538.58307	11534
538.8407	11283
539.09833	11261
539.35596	11191
539.61359	11369
539.87122	10960
540.12885	11083
540.38647	11016
540.64404	11162
540.90167	11097
541.15924	10928
541.41687	10897
541.67444	11174
541.93201	10951
542.18964	10724
542.4472	10741
542.70477	10607
542.96234	10758
543.21991	10490
543.47748	10620
543.73499	10509
543.99255	10591
544.25012	10442
544.50763	10556
544.7652	10585
545.02271	10390
545.28027	10223
545.53778	10489
545.79529	10462
546.05286	10152
546.31036	10324
546.56787	10161
546.82538	10076
547.08289	9999
547.34033	10038
547.59784	10018
547.85535	9979
548.11279	9963
548.3703	9971
548.62775	9818
548.88525	9886
549.1427	9921
549.40015	9635
549.65765	9688
549.9151	9639
550.17255	9589
550.42999	9600
550.68744	9677
550.94482	9798
551.20227	9479
551.45972	9576
551.7171	9402
551.97455	9299
552.23193	9411
552.48938	9361
552.74677	9216
553.00415	9373
553.2616	9294
553.51898	9332
553.77637	9399
554.03375	9070
554.29114	9106
554.54846	9152
554.80585	8918
555.06323	8833
555.32056	8939
555.57794	9102
555.83527	9092
556.09265	8870
556.34998	8944
556.6073	8929
556.86462	8828
557.12195	8809
557.37927	8723
557.6366	8782
557.89392	8620
558.15125	8750
558.40857	8471
558.66583	8595
558.92316	8648
559.18042	8411
559.43774	8447
559.69501	8497
559.95227	8269
560.20953	8455
560.4668	8200
560.72406	8239
560.98132	8358
561.23859	8169
561.49585	7882
561.75311	8300
562.01031	8115
562.26758	7936
562.52478	7982
562.78204	7834
563.03925	7905
563.29651	7847
563.55371	7837
563.81091	7695
564.06812	7841
564.32532	7873
564.58252	8015
564.83966	7556
565.09686	7678
565.35406	7640
565.61121	7482
565.86841	7636
566.12555	7520
566.38275	7729
566.63989	7391
566.89703	7480
567.15417	7189
567.41132	7521
567.66846	7401
567.9256	7192
568.18274	7359
568.43988	7352
568.69696	7250
568.9541	7231
569.21118	7166
569.46832	7006
569.7254	7309
569.98248	7206
570.23956	7159
570.4967	7031
570.75378	6957
571.01086	6979
571.26788	6876
571.52496	6915
571.78204	6828
572.03906	6748
572.29614	6803
572.55316	6646
572.81024	6755
573.06726	6635
573.32428	6575
573.58136	6620
573.83838	6747
574.0954	6611
574.35236	6704
574.60938	6553
574.86639	6524
575.12341	6528
575.38037	6419
575.63739	6362
575.89435	6445
576.15137	6432
576.40833	6164
576.66528	6410
576.92224	6253
577.1792	6267
577.43616	6225
577.69312	6240
577.95007	6141
578.20697	6125
578.46393	6114
578.72089	6097
578.97778	6065
579.23468	6071
579.49164	6128
579.74854	6010
580.00543	6176
580.26233	5962
580.51923	6207
580.77612	6016
581.03302	5933
581.28986	5891
581.54675	5805
581.80359	5932
582.06049	5779
582.31732	5735
582.57422	5874
582.83105	5838
583.08789	5720
583.34473	5756
583.60156	5598
583.8584	5525
584.11523	5460
584.37201	5578
584.62885	5475
584.88568	5645
585.14246	5411
585.39923	5646
585.65607	5439
585.91284	5564
586.16962	5392
586.42639	5335
586.68317	5249
586.93994	5169
587.19672	5180
587.45343	5282
587.71021	5309
587.96698	5092
588.22369	5211
588.48041	5258
588.73718	5215
588.9939	5044
589.25061	5082
589.50732	5049
589.76404	5038
590.02075	4918
590.27747	4987
590.53412	4942
590.79083	4915
591.04755	5070
591.3042	5019
591.56085	4768
591.81757	4774
592.07422	4917
592.33087	4836
592.58752	4731
592.84418	4756
593.10083	4702
593.35742	4744
593.61407	4691
593.87073	4464
594.12732	4729
594.38391	4741
594.64056	4604
594.89716	4538
595.15375	4585
595.41034	4494
595.66693	4350
595.92352	4502
596.18011	4529
596.43671	4415
596.69324	4407
596.94983	4399
597.20636	4441
597.46289	4316
597.71948	4343
597.97601	4373
598.23254	4337
598.48907	4282
598.74561	4235
599.00214	4219
599.25861	4149
599.51514	4077
599.77167	4071
600.02814	4264
600.28461	4105
600.54114	4135
600.79761	4233
601.05408	4151
601.31055	3950
601.56702	3992
601.82349	4019
602.07996	3811
602.33636	3968
602.59283	3924
602.84924	3892
603.10571	3955
603.36212	3945
603.61853	3778
603.87494	3867
604.13135	3939
604.38776	3888
604.64417	3743
604.90057	3851
605.15698	3825
605.41333	3944
605.66974	3720
605.92609	3793
606.1825	3720
606.43884	3698
606.69519	3824
606.95154	3653
607.20789	3607
607.46423	3675
607.72058	3500
607.97687	3579
608.23322	3586
608.4895	3700
608.74585	3494
609.00214	3430
609.25842	3665
609.51471	3486
609.771	3423
610.02728	3561
610.28357	3391
610.53986	3360
610.79614	3487
611.05237	3408
611.30865	3413
611.56488	3384
611.82111	3419
612.07739	3376
612.33362	3283
612.58984	3224
612.84607	3320
613.10223	3346
613.35846	3297
613.61469	3351
613.87085	3241
614.12708	3109
614.38324	3209
614.63947	3202
614.89563	3129
615.15179	3165
615.40796	3246
615.66412	3087
615.92023	3084
616.17639	3173
616.43256	3158
616.68866	3019
616.94482	3100
617.20093	3017
617.45703	2905
617.71313	2918
617.9693	2979
618.22534	3073
618.48145	2909
618.73755	2930
618.99365	2981
619.24969	2933
619.5058	2910
619.76184	2893
620.01788	2946
620.27399	2832
620.53003	2843
620.78607	2796
621.04211	2747
621.2981	2832
621.55414	2870
621.81018	2756
622.06616	2773
622.3222	2741
622.57819	2770
622.83417	2754
623.09015	2775
623.34613	2684
623.60211	2742
623.85809	2717
624.11407	2628
624.37006	2643
624.62598	2601
624.88196	2704
625.13788	2650
625.3938	2647
625.64972	2625
625.9057	2628
626.16162	2533
626.41748	2590
626.6734	2622
626.92932	2569
627.18518	2554
627.4411	2533
627.69696	2502
627.95288	2586
628.20874	2531
628.4646	2520
628.72046	2429
628.97632	2485
629.23218	2564
629.48798	2435
629.74384	2384
629.99963	2428
630.25549	2390
630.51129	2342
630.76709	2351
631.02289	2374
631.27869	2445
631.53448	2247
631.79028	2253
632.04608	2335
632.30182	2235
632.55762	2283
632.81335	2397
633.06915	2219
633.32489	2305
633.58063	2290
633.83636	2293
634.0921	2340
634.34784	2287
634.60352	2288
634.85925	2201
635.11493	2272
635.37067	2179
635.62634	2222
635.88202	2129
636.1377	2244
636.39337	2152
636.64905	2070
636.90472	2060
637.1604	2165
637.41602	2126
637.67169	2127
637.92731	2139
638.18298	2025
638.4386	2217
638.69421	2169
638.94983	2053
639.20544	2021
639.46106	2018
639.71661	2058
639.97223	2066
640.22778	2025
640.4834	2037
640.73895	2041
640.99451	1990
641.25006	1991
641.50562	1989
641.76117	2030
642.01672	2046
642.27222	2017
642.52777	1958
642.78326	1938
643.03882	1863
643.29431	1889
643.5498	1913
643.8053	1887
644.06079	1893
644.31628	1948
644.57178	1820
644.82721	1837
645.0827	1864
645.33813	1813
645.59357	1862
645.84906	1890
646.10449	1853
646.35992	1786
646.61536	1732
646.87073	1770
647.12616	1858
647.38159	1779
647.63696	1778
647.8924	1798
648.14777	1751
648.40314	1749
648.65851	1723
648.91388	1770
649.16925	1676
649.42462	1680
649.67993	1753
649.9353	1710
650.19061	1654
650.44592	1710
650.70129	1656
650.9566	1700
651.21191	1659
651.46722	1689
651.72247	1631
651.97778	1620
652.23309	1666
652.48834	1642
652.74365	1629
652.9989	1638
653.25415	1612
653.5094	1648
653.76465	1558
654.0199	1528
654.27509	1621
654.53033	1595
654.78558	1544
655.04077	1579
655.29596	1503
655.55115	1541
655.80634	1584
656.06152	1595
656.31671	1556
656.5719	1561
656.82709	1581
657.08221	1595
657.3374	1504
657.59253	1504
657.84766	1453
658.10278	1480
658.35791	1456
658.61304	1415
658.86816	1485
659.12329	1468
659.37836	1470
659.63348	1402
659.88855	1450
660.14362	1440
660.39868	1414
660.65375	1414
660.90881	1411
661.16388	1434
661.41895	1370
661.67395	1437
661.92902	1410
662.18402	1376
662.43903	1359
662.69403	1355
662.94904	1385
663.20404	1330
663.45905	1390
663.71405	1363
663.96899	1374
664.224	1305
664.47894	1307
664.73395	1231
664.98889	1269
665.24384	1297
665.49878	1362
665.75366	1327
666.00861	1353
666.26355	1326
666.51843	1205
666.77338	1241
667.02826	1285
667.28314	1307
667.53802	1175
667.79291	1212
668.04779	1216
668.30261	1257
668.5575	1190
668.81232	1303
669.0672	1183
669.32202	1210
669.57684	1199
669.83167	1227
670.08649	1159
670.34131	1154
670.59613	1160
670.85089	1182
671.10571	1198
671.36047	1212
671.61523	1239
671.87	1156
672.12476	1207
672.37952	1188
672.63428	1181
672.88904	1131
673.14374	1146
673.3985	1118
673.6532	1182
673.9079	1125
674.1626	1140
674.4173	1090
674.672	1094
674.9267	1143
675.1814	1154
675.43604	1123
675.69073	1036
675.94537	1075
676.20001	1100
676.45465	1065
676.70929	1040
676.96393	1029
677.21857	1107
677.47314	1052
677.72778	1026
677.98236	1078
678.23694	1073
678.49158	1044
678.74615	1056
679.00067	1042
679.25525	1075
679.50983	1083
679.7644	1009
680.01892	1040
680.27344	1049
680.52802	1084
680.78253	1055
681.03705	1003
681.29156	1048
681.54602	1025
681.80054	1023
682.05499	1008
682.30951	989
682.56396	969
682.81842	976
683.07288	1019
683.32733	993
683.58179	1009
683.83624	1005
684.0907	974
684.34509	926
684.59949	963
684.85394	1016
685.10834	971
685.36273	977
685.61713	971
685.87146	950
686.12585	893
686.38025	884
686.63458	900
686.88892	955
687.14325	918
687.39764	933
687.65192	914
687.90625	890
688.16058	935
688.41492	937
688.66919	908
688.92346	873
689.1778	922
689.43207	886
689.68634	856
689.94061	828
690.19482	926
690.4491	882
690.70331	864
690.95758	954
691.21179	866
691.466	860
691.72021	888
691.97443	833
692.22864	857
692.48285	845
692.737	829
692.99121	818
693.24536	860
693.49951	828
693.75366	842
694.00781	796
694.26196	841
694.51611	823
694.7702	809
695.02435	806
695.27844	823
695.53253	845
695.78668	838
696.04077	832
696.2948	793
696.54889	761
696.80298	879
697.05701	801
697.3111	800
697.56512	786
697.81915	791
698.07318	761
698.32721	769
698.58124	784
698.83521	761
699.08923	770
699.3432	768
699.59723	748
699.8512	794
700.10516	760
700.35913	741
700.61304	802
700.867	741
701.12097	747
701.37488	756
701.62878	752
701.88275	773
702.13666	755
702.3905	708
702.64441	785
702.89832	721
703.15222	767
703.40607	707
703.65991	713
703.91376	748
704.1676	742
704.42145	780
704.67529	720
704.92914	693
705.18292	722
705.43677	690
705.69055	682
705.94434	696
706.19812	723
706.4519	687
706.70569	690
706.95947	675
707.2132	712
707.46698	707
707.7207	682
707.97443	661
708.22815	695
708.48187	651
708.7356	650
708.98932	663
709.24298	657
709.4967	678
709.75037	673
710.00403	655
710.25769	677
710.51135	670
710.76501	688
711.01868	644
711.27228	644
711.52594	661
711.77954	678
712.03314	692
712.28674	628
712.54034	641
712.79395	640
713.04755	678
713.30109	682
713.55469	635
713.80823	649
714.06177	635
714.31531	644
714.56885	623
714.82239	605
715.07587	612
715.32941	652
715.58289	594
715.83643	618
716.0899	661
716.34338	638
716.59686	615
716.85028	610
717.10376	624
717.35718	615
717.61066	643
717.86407	618
718.11749	571
718.37091	588
718.62433	627
718.87775	588
719.1311	560
719.38452	611
719.63788	626
719.89124	574
720.14459	592
720.39795	639
720.65131	579
720.90466	582
721.15796	591
721.41132	569
721.66461	621
721.91791	587
722.1712	556
722.4245	601
722.6778	576
722.93103	557
723.18433	587
723.43756	574
723.6908	607
723.94409	595
724.19733	594
724.4505	564
724.70374	564
724.95697	579
725.21014	548
725.46338	570
725.71655	605
725.96973	611
726.2229	558
726.47607	563
726.72919	577
726.98236	564
727.23547	541
727.48859	554
727.74176	528
727.99487	576
728.24792	558
728.50104	558
728.75415	553
729.0072	574
729.26031	533
729.51337	523
729.76642	551
730.01947	557
730.27252	547
730.52551	517
730.77856	549
731.03156	530
731.28461	559
731.5376	519
731.79059	511
732.04358	537
732.29651	523
732.5495	510
732.80243	504
733.05542	512
733.30835	518
733.56128	527
733.81421	479
734.06714	511
734.32001	497
734.57294	496
734.82581	514
735.07874	494
735.3316	474
735.58447	508
735.83734	508
736.09015	521
736.34302	541
736.59583	482
736.84869	510
737.1015	506
737.35431	471
737.60712	501
737.85992	512
738.11267	468
738.36548	500
738.61823	480
738.87103	496
739.12378	506
739.37653	461
739.62921	486
739.88196	504
740.1347	470
740.38739	500
740.64008	476
740.89282	474
741.14551	512
741.39813	502
741.65082	510
741.9035	505
742.15613	536
742.40881	458
742.66144	505
742.91406	453
743.16669	468
743.41925	498
743.67188	468
743.9245	466
744.17706	462
744.42963	449
744.68219	461
744.93475	482
745.18732	432
745.43988	471
745.69238	451
745.94495	447
746.19745	448
746.44995	474
746.70245	460
746.95496	484
747.20746	449
747.4599	453
747.7124	451
747.96484	491
748.21729	462
748.46973	477
748.72217	483
748.97461	442
749.22699	438
749.47943	459
749.73181	446
749.98419	436
750.23657	484
750.48895	425
750.74133	461
750.99365	413
751.24603	439
751.49835	440
751.75067	462
752.00299	407
752.25531	416
752.50763	450
752.75995	439
753.01221	456
753.26453	443
753.51678	400
753.76904	431
754.0213	428
754.2735	422
754.52576	414
754.77802	446
755.03021	434
755.28241	416
755.53461	422
755.7868	399
756.039	426
756.2912	431
756.54333	398
756.79547	412
757.04767	419
757.2998	433
757.55194	463
757.80408	437
758.05615	429
758.30829	454
758.56036	393
758.81244	381
759.06451	404
759.31659	406
759.56866	423
759.82074	442
760.07275	398
760.32483	422
760.57684	406
760.82886	433
761.08087	419
761.33289	423
761.58484	404
761.83685	408
762.08881	417
762.34076	391
762.59271	401
762.84467	425
763.09662	415
763.34857	412
763.60046	409
763.85242	395
764.10431	389
764.3562	398
764.60809	397
764.85999	395
765.11182	393
765.36371	424
765.61554	401
765.86737	393
766.1192	396
766.37103	407
766.62286	393
766.87463	380
767.12646	413
767.37823	417
767.63	402
767.88177	408
768.13354	374
768.38531	412
768.63708	383
768.88879	371
769.1405	404
769.39221	385
769.64392	394
769.89563	406
770.14734	383
770.39905	395
770.6507	403
770.90234	385
771.15399	356
771.40564	401
771.65729	414
771.90894	397
772.16052	381
772.41217	386
772.66376	397
772.91534	376
773.16693	374
773.41852	400
773.67004	391
773.92163	373
774.17316	393
774.42468	394
774.67627	375
774.92773	368
775.17926	392
775.43079	387
775.68225	387
775.93378	383
776.18524	368
776.43671	378
776.68817	409
776.93958	381
777.19104	396
777.44244	346
777.69391	370
777.94531	362
778.19672	366
778.44806	366
778.69946	362
778.95087	368
779.20221	366
779.45355	355
779.7049	375
779.95624	381
780.20758	377
780.45892	367
780.71021	372
780.96149	373
781.21277	350
781.46405	381
781.71533	387
781.96661	366
782.2179	365
782.46912	379
782.72034	346
782.97156	353
783.22278	344
783.474	350
783.72522	360
783.97638	373
784.2276	331
784.47876	367
784.72992	346
784.98108	390
785.23218	372
785.48334	350
785.7345	363
785.9856	414
786.23669	351
786.48779	361
786.73889	374
786.98993	369
787.24103	377
787.49207	379
787.74316	352
787.9942	342
788.24518	362
788.49622	356
788.74725	357
788.99823	371
789.24927	375
789.50024	342
789.75122	338
790.0022	343
790.25311	361
790.50409	342
790.755	386
791.00592	339
791.25684	355
791.50775	376
791.75867	351
792.00958	337
792.26044	347
792.51129	361
792.76221	363
793.01306	347
793.26385	355
793.51471	342
793.76556	338
794.01636	355
794.26715	331
794.51794	357
794.76874	357
795.01953	368
795.27032	345
795.52106	343
795.77179	356
796.02252	372
796.27325	358
796.52399	362
796.77472	329
797.02539	342
797.27612	356
797.52679	344
797.77747	345
798.02814	325
798.27875	351
798.52942	325
798.78003	347
799.0307	379
799.28131	329
799.53192	328
799.78253	354
800.03308	358
800.28369	366
800.53424	351
800.78479	350
801.03534	347
801.28589	341
801.53644	361
801.78693	325
802.03741	331
802.28796	362
802.53845	328
802.78894	352
803.03937	337
803.28986	311
803.54028	340
803.79077	341
804.0412	349
804.29163	346
804.54199	359
804.79242	347
805.04279	332
805.29321	340
805.54358	347
805.79395	331
806.04431	339
806.29462	349
806.54498	353
806.79529	329
807.04559	323
807.2959	359
807.5462	320
807.79651	330
808.04681	329
808.29706	351
808.5473	360
808.79755	330
809.04779	327
809.29803	329
809.54828	334
809.79846	326
810.04865	332
810.29883	367
810.54901	342
810.79919	327
811.04938	341
811.2995	344
811.54962	342
811.7998	339
812.04993	349
812.29999	332
812.55011	327
812.80023	316
813.05029	337
813.30035	363
813.55042	329
813.80048	337
814.05054	332
814.30054	316
814.55054	336
814.8006	332
815.0506	314
815.3006	321
815.55054	330
815.80054	333
816.05048	325
816.30042	339
816.55042	331
816.80029	336
817.05023	342
817.30017	306
817.55005	320
817.79993	347
818.0498	328
818.29968	321
818.54956	328
818.79944	341
819.04926	319
819.29907	331
819.54895	341
819.79877	318
820.04852	338
820.29834	322
820.5481	330
820.79791	336
821.04767	357
821.29742	332
821.54712	343
821.79688	304
822.04663	351
822.29633	326
822.54602	348
822.79572	347
823.04541	330
823.29504	331
823.54474	324
823.79437	330
824.04401	350
824.29364	345
824.54327	355
824.79291	356
825.04248	361
825.29211	330
825.54169	330
825.79126	311
826.04077	340
