Date and Time:                Tue May 21 12:29:11.214 2024
Software Version:             4.30.30000.0
Temperature (C):              -90
Model:                        DU971P_UVB
Data Type:                    Counts
Acquisition Mode:             Single Scan
Trigger Mode:                 Internal
Exposure Time (secs):         1
Readout Mode:                 Full Vertical Binning
Horizontal binning:           1
Extended Dynamic Range:       off
Horizontally flipped:         false
Vertical Shift Speed (usecs): 9.68
Pixel Readout Rate (MHz):     3
Baseline Clamp:               ON
Clock Amplitude:              Normal
Output Amplifier:             Conventional
Serial Number:                20367
Pre-Amplifier Gain:           4x
Spurious Noise Filter Mode:   No Filter
Photon counted:               false
Data Averaging Filter Mode:   No Filter
SR193i:
Serial Number:                SR-2646
Wavelength (nm):              630
Grating Groove Density (l/mm):300
Grating Blaze:                500nm
Input Side Slit Width (um):   1000



417.6445	405
417.9035	358
418.16251	321
418.42151	343
418.68048	363
418.93948	380
419.19846	383
419.45746	361
419.71643	363
419.97543	376
420.23441	385
420.49341	347
420.75238	362
421.01135	369
421.27032	373
421.5293	374
421.78827	327
422.04724	355
422.30621	395
422.56519	367
422.82416	387
423.08313	368
423.34207	375
423.60104	406
423.85999	421
424.11896	449
424.3779	487
424.63687	504
424.89581	504
425.15475	547
425.41373	573
425.67267	567
425.93161	588
426.19055	569
426.44949	603
426.70844	588
426.96738	592
427.22629	624
427.48523	622
427.74417	618
428.00308	628
428.26202	622
428.52094	609
428.77988	632
429.03879	643
429.2977	651
429.55664	631
429.81555	646
430.07446	646
430.33337	669
430.59229	673
430.8512	704
431.11011	659
431.36899	671
431.6279	722
431.88681	691
432.14569	741
432.4046	698
432.66348	727
432.92239	711
433.18127	755
433.44016	732
433.69907	782
433.95795	784
434.21683	854
434.47571	902
434.73459	968
434.99347	1194
435.25232	1330
435.5112	1559
435.77008	1725
436.02896	1884
436.28781	2019
436.54669	2352
436.80554	2574
437.06439	2786
437.32327	3022
437.58212	3242
437.84097	3398
438.09982	3684
438.35867	3901
438.61752	4199
438.87637	4361
439.13522	4675
439.39404	4868
439.65289	5036
439.91174	5091
440.17056	5463
440.42941	5691
440.68823	5871
440.94705	6009
441.20587	6280
441.46472	6733
441.72354	6864
441.98236	7025
442.24118	7314
442.5	7531
442.75879	7611
443.01761	7901
443.27643	8286
443.53522	8582
443.79404	8615
444.05283	8870
444.31165	9326
444.57043	9313
444.82922	9569
445.08801	9915
445.34683	10239
445.60562	10313
445.86441	10462
446.12317	10643
446.38196	10967
446.64075	11143
446.89954	11444
447.15829	11624
447.41708	11766
447.67584	12178
447.9346	12090
448.19339	12375
448.45215	12778
448.71091	12739
448.96967	12960
449.22842	13105
449.48718	13350
449.74594	13336
450.00467	13403
450.26343	13557
450.52219	13696
450.78091	13441
451.03967	13509
451.2984	13456
451.55713	13364
451.81589	13639
452.07462	13296
452.33334	13142
452.59207	13249
452.8508	13344
453.1095	13465
453.36823	13151
453.62695	13218
453.88565	13156
454.14438	13218
454.40308	13162
454.6618	13108
454.9205	13177
455.1792	13236
455.4379	13279
455.69659	13555
455.95529	13251
456.21399	13279
456.47269	13575
456.73138	13523
456.99005	13484
457.24875	13648
457.50742	13770
457.76611	13712
458.02478	13691
458.28345	13898
458.54211	13570
458.80078	13920
459.05945	14198
459.31812	14088
459.57678	14243
459.83545	14471
460.09409	14487
460.35275	14735
460.61139	14807
460.87006	14770
461.12869	14923
461.38733	14991
461.64597	15174
461.9046	15451
462.16324	15590
462.42188	15640
462.68051	16037
462.93915	16003
463.19775	16213
463.45639	16715
463.715	16876
463.97363	16892
464.23224	17057
464.49084	17403
464.74945	17586
465.00806	17667
465.26666	17939
465.52527	17854
465.78387	18523
466.04248	18571
466.30106	18792
466.55966	19018
466.81824	19206
467.07684	19591
467.33542	19761
467.59399	19761
467.85257	20235
468.11115	20223
468.36972	20710
468.6283	20937
468.88684	21452
469.14542	21509
469.40399	21737
469.66254	22199
469.92108	21991
470.17966	22349
470.4382	22563
470.69675	22809
470.95529	23372
471.21384	23521
471.47238	23422
471.7309	23657
471.98944	23991
472.24799	24651
472.5065	24836
472.76501	25042
473.02356	25154
473.28207	25670
473.54059	25680
473.7991	26354
474.05762	26225
474.31613	26491
474.57462	26867
474.83313	27170
475.09161	27417
475.35013	27800
475.60861	28427
475.8671	28365
476.12561	28962
476.38409	29451
476.64258	29926
476.90106	29830
477.15952	29927
477.418	30004
477.67648	30358
477.93494	30547
478.19339	30600
478.45187	30942
478.71033	31062
478.96878	31243
479.22723	31248
479.48569	30985
479.74414	31249
480.00259	31648
480.26102	31704
480.51947	31410
480.77789	31801
481.03635	32146
481.29477	32026
481.55319	31776
481.81161	32100
482.07004	32221
482.32846	32425
482.58688	32025
482.84528	32322
483.1037	32258
483.36209	31957
483.62051	32041
483.87891	32197
484.1373	32040
484.39569	32423
484.65408	32312
484.91248	32341
485.17087	32400
485.42923	32105
485.68762	31942
485.94598	31799
486.20438	31914
486.46274	32082
486.7211	32265
486.97946	31921
487.23782	32122
487.49619	31822
487.75455	31581
488.01291	31530
488.27124	31376
488.5296	31297
488.78793	31072
489.04626	30781
489.3046	31171
489.56293	31176
489.82126	31108
490.07959	30809
490.33792	30604
490.59622	30264
490.85455	30564
491.11285	30237
491.37119	30127
491.62949	29983
491.88779	29823
492.14609	29893
492.40439	29667
492.66269	29149
492.92096	29572
493.17926	29349
493.43756	29383
493.69583	29243
493.9541	29535
494.21237	29117
494.47064	29474
494.72891	29016
494.98718	28956
495.24545	29523
495.50372	28903
495.76196	29237
496.0202	29148
496.27847	29314
496.53671	29527
496.79495	29121
497.05319	28907
497.31143	29024
497.56967	29573
497.82788	28896
498.08612	29217
498.34433	29216
498.60257	29149
498.86078	29077
499.11899	29269
499.3772	29146
499.63541	29304
499.89362	28919
500.15179	29501
500.41	29050
500.66818	28653
500.92639	29337
501.18457	28996
501.44275	29143
501.70093	28935
501.95911	29147
502.21729	28885
502.47546	28913
502.73361	28887
502.99179	28961
503.24994	28669
503.50809	28650
503.76624	28819
504.02438	28958
504.28253	28997
504.54068	28597
504.79883	28920
505.05695	28965
505.31509	28628
505.57321	28936
505.83133	29110
506.08945	29021
506.34756	29246
506.60568	28875
506.8638	28998
507.12192	28494
507.38	29002
507.63812	29063
507.89621	28563
508.1543	28968
508.41238	28833
508.67047	28970
508.92856	28724
509.18665	28976
509.4447	28929
509.70279	28581
509.96085	29174
510.2189	28817
510.47699	28706
510.73505	29110
510.9931	29062
511.25113	28996
511.50919	29010
511.76724	28894
512.02527	28847
512.28333	28997
512.54132	29102
512.79938	28779
513.05737	28719
513.31543	28877
513.57343	28961
513.83142	29022
514.08948	28878
514.34747	28772
514.60547	28527
514.86346	28507
515.12146	28859
515.37946	28572
515.63745	28730
515.89545	28594
516.15338	28888
516.41138	28823
516.66937	28565
516.92731	28618
517.1853	28863
517.44324	28385
517.70123	28786
517.95917	28353
518.2171	28503
518.4751	28463
518.73303	28266
518.99097	28313
519.2489	28197
519.50684	28403
519.76477	27892
520.02271	28227
520.28058	28557
520.53851	27793
520.79645	27996
521.05432	28021
521.31226	28124
521.57013	27988
521.82806	28039
522.08594	28019
522.34381	27744
522.60175	27959
522.85962	27568
523.11749	27676
523.37537	27576
523.63324	27353
523.89111	27757
524.14899	27491
524.40686	27681
524.66467	27108
524.92255	27383
525.18036	27289
525.43823	27412
525.69604	27315
525.95392	27091
526.21173	26984
526.4696	26917
526.72742	26923
526.98523	26720
527.24304	26976
527.50085	26716
527.75867	26457
528.01648	26819
528.27429	26150
528.53204	26348
528.78986	26596
529.04767	26476
529.30542	26601
529.56323	26461
529.82098	26405
530.0788	26461
530.33655	25903
530.5943	26226
530.85205	25982
531.10986	25885
531.36761	26060
531.62537	26174
531.88312	26029
532.14081	25575
532.39856	25912
532.65631	25524
532.91406	25739
533.17175	25664
533.4295	25426
533.68719	25502
533.94495	25108
534.20264	25067
534.46033	25457
534.71802	25164
534.97571	25257
535.2334	24668
535.49109	24824
535.74878	24663
536.00647	24737
536.26416	24905
536.52185	24701
536.77948	24627
537.03717	24309
537.29486	24092
537.55249	24251
537.81012	24533
538.06781	24401
538.32544	24101
538.58307	23897
538.8407	23817
539.09833	23546
539.35596	24002
539.61359	23911
539.87122	23516
540.12885	23775
540.38647	23346
540.64404	23317
540.90167	23280
541.15924	23129
541.41687	23038
541.67444	22794
541.93201	22814
542.18964	23214
542.4472	22971
542.70477	22664
542.96234	22838
543.21991	22296
543.47748	22430
543.73499	22528
543.99255	22544
544.25012	22305
544.50763	21856
544.7652	22003
545.02271	21658
545.28027	21734
545.53778	21659
545.79529	21866
546.05286	21573
546.31036	21712
546.56787	21533
546.82538	21637
547.08289	21193
547.34033	21017
547.59784	21210
547.85535	20789
548.11279	21113
548.3703	21168
548.62775	20869
548.88525	20793
549.1427	20718
549.40015	20441
549.65765	20420
549.9151	20352
550.17255	20561
550.42999	20314
550.68744	20370
550.94482	19916
551.20227	19955
551.45972	19622
551.7171	19866
551.97455	19606
552.23193	19782
552.48938	19542
552.74677	19684
553.00415	19854
553.2616	19487
553.51898	19409
553.77637	19073
554.03375	19067
554.29114	19022
554.54846	19123
554.80585	18791
555.06323	18582
555.32056	18894
555.57794	18853
555.83527	18633
556.09265	18406
556.34998	18348
556.6073	18652
556.86462	18254
557.12195	18504
557.37927	18532
557.6366	18038
557.89392	18127
558.15125	18145
558.40857	17910
558.66583	18127
558.92316	17870
559.18042	17926
559.43774	17584
559.69501	17618
559.95227	17372
560.20953	17423
560.4668	17341
560.72406	17020
560.98132	17273
561.23859	17190
561.49585	17139
561.75311	17124
562.01031	17163
562.26758	17022
562.52478	16797
562.78204	16674
563.03925	16796
563.29651	16676
563.55371	16762
563.81091	16515
564.06812	16615
564.32532	16222
564.58252	16212
564.83966	16267
565.09686	16229
565.35406	16055
565.61121	16046
565.86841	16004
566.12555	15758
566.38275	15728
566.63989	16009
566.89703	15488
567.15417	15718
567.41132	15778
567.66846	15826
567.9256	15494
568.18274	15394
568.43988	15172
568.69696	15414
568.9541	15039
569.21118	14991
569.46832	15238
569.7254	15102
569.98248	14913
570.23956	14977
570.4967	14835
570.75378	14725
571.01086	14748
571.26788	14928
571.52496	14623
571.78204	14522
572.03906	14446
572.29614	14463
572.55316	14462
572.81024	14427
573.06726	14326
573.32428	14367
573.58136	14056
573.83838	14251
574.0954	14003
574.35236	14182
574.60938	14103
574.86639	14099
575.12341	13966
575.38037	13834
575.63739	13840
575.89435	13955
576.15137	13496
576.40833	13727
576.66528	13649
576.92224	13878
577.1792	13911
577.43616	13725
577.69312	13735
577.95007	13595
578.20697	13500
578.46393	13644
578.72089	13612
578.97778	13750
579.23468	13503
579.49164	13418
579.74854	13209
580.00543	13344
580.26233	13062
580.51923	13090
580.77612	13212
581.03302	13165
581.28986	12798
581.54675	13017
581.80359	13083
582.06049	12810
582.31732	12771
582.57422	12700
582.83105	12761
583.08789	12713
583.34473	12659
583.60156	12883
583.8584	12498
584.11523	12592
584.37201	12623
584.62885	12507
584.88568	12591
585.14246	12435
585.39923	12446
585.65607	12318
585.91284	12459
586.16962	12160
586.42639	12233
586.68317	12253
586.93994	12121
587.19672	12349
587.45343	12134
587.71021	12301
587.96698	12153
588.22369	12082
588.48041	11887
588.73718	11988
588.9939	11962
589.25061	12053
589.50732	11771
589.76404	11897
590.02075	12096
590.27747	11990
590.53412	11914
590.79083	11936
591.04755	11950
591.3042	12022
591.56085	12005
591.81757	11928
592.07422	11789
592.33087	11661
592.58752	11979
592.84418	12186
593.10083	11938
593.35742	12132
593.61407	12099
593.87073	12291
594.12732	12075
594.38391	12244
594.64056	12201
594.89716	12190
595.15375	12279
595.41034	12444
595.66693	12235
595.92352	12282
596.18011	12134
596.43671	12309
596.69324	12450
596.94983	12171
597.20636	12252
597.46289	12128
597.71948	12225
597.97601	12236
598.23254	12145
598.48907	12037
598.74561	12069
599.00214	11872
599.25861	11889
599.51514	11741
599.77167	11772
600.02814	11726
600.28461	11823
600.54114	11479
600.79761	11700
601.05408	11571
601.31055	11431
601.56702	11161
601.82349	11290
602.07996	11151
602.33636	11165
602.59283	11054
602.84924	11036
603.10571	11127
603.36212	10853
603.61853	11040
603.87494	10781
604.13135	10747
604.38776	10584
604.64417	10755
604.90057	10524
605.15698	10477
605.41333	10390
605.66974	10205
605.92609	9855
606.1825	10148
606.43884	9884
606.69519	9812
606.95154	9791
607.20789	9521
607.46423	9614
607.72058	9273
607.97687	9244
608.23322	9216
608.4895	9003
608.74585	9044
609.00214	8948
609.25842	8850
609.51471	8738
609.771	8744
610.02728	8498
610.28357	8686
610.53986	8640
610.79614	8390
611.05237	8358
611.30865	8426
611.56488	8365
611.82111	8230
612.07739	8495
612.33362	8243
612.58984	8399
612.84607	8180
613.10223	8258
613.35846	7951
613.61469	8011
613.87085	7975
614.12708	8010
614.38324	7804
614.63947	7689
614.89563	7797
615.15179	7679
615.40796	7640
615.66412	7674
615.92023	7525
616.17639	7659
616.43256	7749
616.68866	7400
616.94482	7392
617.20093	7459
617.45703	7408
617.71313	7466
617.9693	7265
618.22534	7230
618.48145	7169
618.73755	7164
618.99365	7117
619.24969	7102
619.5058	6900
619.76184	7044
620.01788	7070
620.27399	6870
620.53003	6718
620.78607	6826
621.04211	6934
621.2981	6730
621.55414	6494
621.81018	6716
622.06616	6538
622.3222	6643
622.57819	6589
622.83417	6547
623.09015	6439
623.34613	6478
623.60211	6526
623.85809	6607
624.11407	6407
624.37006	6453
624.62598	6476
624.88196	6388
625.13788	6303
625.3938	6277
625.64972	6507
625.9057	6335
626.16162	6428
626.41748	6421
626.6734	6506
626.92932	6683
627.18518	6751
627.4411	6694
627.69696	6763
627.95288	6840
628.20874	6980
628.4646	7221
628.72046	7102
628.97632	7262
629.23218	7327
629.48798	7184
629.74384	7348
629.99963	7218
630.25549	7113
630.51129	7196
630.76709	7287
631.02289	6985
631.27869	7264
631.53448	7113
631.79028	7084
632.04608	7051
632.30182	6997
632.55762	7083
632.81335	7023
633.06915	7017
633.32489	6957
633.58063	6791
633.83636	6945
634.0921	6939
634.34784	6931
634.60352	6646
634.85925	6895
635.11493	6797
635.37067	6596
635.62634	6783
635.88202	6735
636.1377	6660
636.39337	6602
636.64905	6633
636.90472	6516
637.1604	6526
637.41602	6477
637.67169	6358
637.92731	6396
638.18298	6326
638.4386	6386
638.69421	6099
638.94983	6112
639.20544	6122
639.46106	6096
639.71661	6142
639.97223	6013
640.22778	5875
640.4834	5706
640.73895	5803
640.99451	5543
641.25006	5538
641.50562	5407
641.76117	5487
642.01672	5199
642.27222	5121
642.52777	4930
642.78326	4802
643.03882	4782
643.29431	4695
643.5498	4664
643.8053	4587
644.06079	4514
644.31628	4464
644.57178	4442
644.82721	4528
645.0827	4475
645.33813	4458
645.59357	4296
645.84906	4298
646.10449	4356
646.35992	4253
646.61536	4322
646.87073	4190
647.12616	4125
647.38159	4318
647.63696	4093
647.8924	4193
648.14777	4159
648.40314	4157
648.65851	4026
648.91388	3961
649.16925	4108
649.42462	3950
649.67993	3953
649.9353	3977
650.19061	3921
650.44592	3858
650.70129	3874
650.9566	3964
651.21191	3794
651.46722	3823
651.72247	3717
651.97778	3815
652.23309	3746
652.48834	3858
652.74365	3714
652.9989	3819
653.25415	3650
653.5094	3683
653.76465	3543
654.0199	3621
654.27509	3494
654.53033	3581
654.78558	3490
655.04077	3463
655.29596	3418
655.55115	3349
655.80634	3408
656.06152	3463
656.31671	3337
656.5719	3435
656.82709	3435
657.08221	3337
657.3374	3316
657.59253	3434
657.84766	3263
658.10278	3185
658.35791	3420
658.61304	3177
658.86816	3172
659.12329	3218
659.37836	3038
659.63348	3244
659.88855	3065
660.14362	3149
660.39868	3091
660.65375	3008
660.90881	3101
661.16388	3067
661.41895	3071
661.67395	2948
661.92902	3172
662.18402	3007
662.43903	2903
662.69403	2967
662.94904	2995
663.20404	3029
663.45905	3035
663.71405	2863
663.96899	2835
664.224	2947
664.47894	2926
664.73395	2830
664.98889	2805
665.24384	3023
665.49878	2832
665.75366	2882
666.00861	2767
666.26355	2748
666.51843	2778
666.77338	2783
667.02826	2748
667.28314	2719
667.53802	2720
667.79291	2706
668.04779	2590
668.30261	2691
668.5575	2643
668.81232	2582
669.0672	2641
669.32202	2653
669.57684	2600
669.83167	2569
670.08649	2681
670.34131	2615
670.59613	2572
670.85089	2557
671.10571	2666
671.36047	2499
671.61523	2550
671.87	2555
672.12476	2490
672.37952	2493
672.63428	2537
672.88904	2409
673.14374	2551
673.3985	2433
673.6532	2482
673.9079	2451
674.1626	2423
674.4173	2446
674.672	2376
674.9267	2401
675.1814	2463
675.43604	2412
675.69073	2442
675.94537	2423
676.20001	2396
676.45465	2360
676.70929	2397
676.96393	2415
677.21857	2282
677.47314	2305
677.72778	2270
677.98236	2391
678.23694	2341
678.49158	2313
678.74615	2340
679.00067	2223
679.25525	2340
679.50983	2267
679.7644	2358
680.01892	2281
680.27344	2280
680.52802	2285
680.78253	2171
681.03705	2193
681.29156	2226
681.54602	2223
681.80054	2221
682.05499	2280
682.30951	2184
682.56396	2160
682.81842	2294
683.07288	2255
683.32733	2219
683.58179	2229
683.83624	2168
684.0907	2185
684.34509	2093
684.59949	2184
684.85394	2085
685.10834	2159
685.36273	2081
685.61713	2061
685.87146	2222
686.12585	2140
686.38025	2115
686.63458	2065
686.88892	2106
687.14325	2108
687.39764	2087
687.65192	2061
687.90625	2052
688.16058	2079
688.41492	2038
688.66919	2084
688.92346	1982
689.1778	1963
689.43207	2032
689.68634	2036
689.94061	1903
690.19482	1927
690.4491	1958
690.70331	1895
690.95758	1926
691.21179	1918
691.466	1918
691.72021	1937
691.97443	1928
692.22864	1898
692.48285	1893
692.737	1868
692.99121	1914
693.24536	1807
693.49951	1929
693.75366	1861
694.00781	1875
694.26196	1888
694.51611	1879
694.7702	1757
695.02435	1832
695.27844	1833
695.53253	1791
695.78668	1781
696.04077	1801
696.2948	1864
696.54889	1827
696.80298	1833
697.05701	1743
697.3111	1752
697.56512	1796
697.81915	1792
698.07318	1676
698.32721	1680
698.58124	1736
698.83521	1692
699.08923	1705
699.3432	1665
699.59723	1658
699.8512	1659
700.10516	1692
700.35913	1661
700.61304	1656
700.867	1666
701.12097	1596
701.37488	1686
701.62878	1628
701.88275	1746
702.13666	1675
702.3905	1710
702.64441	1651
702.89832	1661
703.15222	1698
703.40607	1669
703.65991	1637
703.91376	1645
704.1676	1639
704.42145	1623
704.67529	1605
704.92914	1651
705.18292	1648
705.43677	1608
705.69055	1631
705.94434	1584
706.19812	1735
706.4519	1568
706.70569	1647
706.95947	1595
707.2132	1687
707.46698	1570
707.7207	1638
707.97443	1563
708.22815	1608
708.48187	1627
708.7356	1530
708.98932	1492
709.24298	1561
709.4967	1578
709.75037	1515
710.00403	1477
710.25769	1470
710.51135	1519
710.76501	1496
711.01868	1383
711.27228	1538
711.52594	1435
711.77954	1456
712.03314	1458
712.28674	1515
712.54034	1471
712.79395	1472
713.04755	1502
713.30109	1550
713.55469	1425
713.80823	1398
714.06177	1403
714.31531	1431
714.56885	1405
714.82239	1346
715.07587	1377
715.32941	1365
715.58289	1382
715.83643	1441
716.0899	1326
716.34338	1407
716.59686	1318
716.85028	1345
717.10376	1333
717.35718	1307
717.61066	1342
717.86407	1345
718.11749	1354
718.37091	1319
718.62433	1322
718.87775	1293
719.1311	1281
719.38452	1321
719.63788	1277
719.89124	1337
720.14459	1311
720.39795	1340
720.65131	1290
720.90466	1261
721.15796	1364
721.41132	1220
721.66461	1325
721.91791	1240
722.1712	1303
722.4245	1258
722.6778	1264
722.93103	1233
723.18433	1260
723.43756	1236
723.6908	1304
723.94409	1255
724.19733	1280
724.4505	1326
724.70374	1228
724.95697	1254
725.21014	1208
725.46338	1181
725.71655	1254
725.96973	1246
726.2229	1245
726.47607	1194
726.72919	1243
726.98236	1167
727.23547	1146
727.48859	1178
727.74176	1162
727.99487	1153
728.24792	1150
728.50104	1143
728.75415	1112
729.0072	1119
729.26031	1115
729.51337	1105
729.76642	1080
730.01947	1109
730.27252	1058
730.52551	1084
730.77856	1138
731.03156	1106
731.28461	1054
731.5376	1044
731.79059	972
732.04358	1048
732.29651	1077
732.5495	1033
732.80243	1053
733.05542	971
733.30835	1007
733.56128	966
733.81421	935
734.06714	952
734.32001	1023
734.57294	933
734.82581	930
735.07874	918
735.3316	929
735.58447	869
735.83734	932
736.09015	889
736.34302	944
736.59583	867
736.84869	920
737.1015	909
737.35431	859
737.60712	886
737.85992	857
738.11267	851
738.36548	851
738.61823	852
738.87103	839
739.12378	836
739.37653	843
739.62921	898
739.88196	842
740.1347	862
740.38739	823
740.64008	823
740.89282	871
741.14551	840
741.39813	786
741.65082	826
741.9035	847
742.15613	833
742.40881	800
742.66144	823
742.91406	845
743.16669	793
743.41925	810
743.67188	775
743.9245	784
744.17706	806
744.42963	790
744.68219	782
744.93475	763
745.18732	782
745.43988	740
745.69238	747
745.94495	777
746.19745	775
746.44995	714
746.70245	734
746.95496	770
747.20746	700
747.4599	711
747.7124	734
747.96484	725
748.21729	690
748.46973	733
748.72217	682
748.97461	705
749.22699	703
749.47943	753
749.73181	715
749.98419	677
750.23657	686
750.48895	695
750.74133	672
750.99365	684
751.24603	678
751.49835	678
751.75067	675
752.00299	665
752.25531	681
752.50763	707
752.75995	669
753.01221	651
753.26453	684
753.51678	647
753.76904	630
754.0213	621
754.2735	667
754.52576	636
754.77802	647
755.03021	614
755.28241	652
755.53461	659
755.7868	622
756.039	648
756.2912	658
756.54333	615
756.79547	631
757.04767	605
757.2998	629
757.55194	593
757.80408	638
758.05615	651
758.30829	605
758.56036	626
758.81244	610
759.06451	588
759.31659	563
759.56866	583
759.82074	595
760.07275	603
760.32483	574
760.57684	589
760.82886	598
761.08087	625
761.33289	590
761.58484	591
761.83685	568
762.08881	561
762.34076	584
762.59271	584
762.84467	594
763.09662	560
763.34857	562
763.60046	597
763.85242	554
764.10431	566
764.3562	567
764.60809	568
764.85999	573
765.11182	551
765.36371	521
765.61554	552
765.86737	574
766.1192	569
766.37103	492
766.62286	569
766.87463	576
767.12646	515
767.37823	529
767.63	583
767.88177	530
768.13354	546
768.38531	541
768.63708	581
768.88879	542
769.1405	546
769.39221	535
769.64392	519
769.89563	523
770.14734	558
770.39905	516
770.6507	542
770.90234	508
771.15399	535
771.40564	527
771.65729	507
771.90894	501
772.16052	493
772.41217	482
772.66376	538
772.91534	485
773.16693	546
773.41852	503
773.67004	521
773.92163	549
774.17316	530
774.42468	486
774.67627	496
774.92773	484
775.17926	489
775.43079	503
775.68225	512
775.93378	511
776.18524	531
776.43671	492
776.68817	480
776.93958	462
777.19104	493
777.44244	457
777.69391	468
777.94531	472
778.19672	499
778.44806	489
778.69946	489
778.95087	487
779.20221	471
779.45355	480
779.7049	420
779.95624	454
780.20758	487
780.45892	468
780.71021	506
780.96149	468
781.21277	467
781.46405	463
781.71533	482
781.96661	480
782.2179	450
782.46912	421
782.72034	455
782.97156	473
783.22278	469
783.474	434
783.72522	470
783.97638	472
784.2276	467
784.47876	487
784.72992	469
784.98108	465
785.23218	474
785.48334	434
785.7345	439
785.9856	443
786.23669	466
786.48779	457
786.73889	460
786.98993	482
787.24103	439
787.49207	431
787.74316	456
787.9942	446
788.24518	458
788.49622	453
788.74725	448
788.99823	432
789.24927	446
789.50024	461
789.75122	443
790.0022	431
790.25311	443
790.50409	418
790.755	446
791.00592	437
791.25684	419
791.50775	414
791.75867	435
792.00958	451
792.26044	461
792.51129	426
792.76221	435
793.01306	437
793.26385	423
793.51471	439
793.76556	442
794.01636	424
794.26715	436
794.51794	399
794.76874	422
795.01953	408
795.27032	413
795.52106	441
795.77179	420
796.02252	427
796.27325	375
796.52399	426
796.77472	427
797.02539	410
797.27612	399
797.52679	426
797.77747	423
798.02814	425
798.27875	422
798.52942	401
798.78003	395
799.0307	417
799.28131	415
799.53192	398
799.78253	412
800.03308	408
800.28369	391
800.53424	382
800.78479	413
801.03534	414
801.28589	388
801.53644	391
801.78693	398
802.03741	414
802.28796	418
802.53845	414
802.78894	380
803.03937	400
803.28986	406
803.54028	379
803.79077	399
804.0412	408
804.29163	396
804.54199	395
804.79242	409
805.04279	416
805.29321	418
805.54358	401
805.79395	410
806.04431	409
806.29462	388
806.54498	362
806.79529	370
807.04559	378
807.2959	383
807.5462	390
807.79651	418
808.04681	375
808.29706	406
808.5473	382
808.79755	370
809.04779	372
809.29803	375
809.54828	384
809.79846	359
810.04865	391
810.29883	394
810.54901	379
810.79919	380
811.04938	416
811.2995	389
811.54962	379
811.7998	412
812.04993	390
812.29999	376
812.55011	379
812.80023	400
813.05029	367
813.30035	376
813.55042	385
813.80048	383
814.05054	380
814.30054	385
814.55054	363
814.8006	401
815.0506	361
815.3006	406
815.55054	391
815.80054	380
816.05048	363
816.30042	383
816.55042	373
816.80029	393
817.05023	397
817.30017	381
817.55005	385
817.79993	385
818.0498	377
818.29968	400
818.54956	379
818.79944	379
819.04926	384
819.29907	362
819.54895	368
819.79877	385
820.04852	370
820.29834	382
820.5481	363
820.79791	394
821.04767	358
821.29742	390
821.54712	381
821.79688	361
822.04663	361
822.29633	375
822.54602	407
822.79572	419
823.04541	383
823.29504	373
823.54474	363
823.79437	371
824.04401	363
824.29364	374
824.54327	357
824.79291	378
825.04248	383
825.29211	373
825.54169	380
825.79126	396
826.04077	393
