Date and Time:                Mon May 13 09:08:50.421 2024
Software Version:             4.30.30000.0
Temperature (C):              -90
Model:                        DU971P_UVB
Data Type:                    Counts
Acquisition Mode:             Single Scan
Trigger Mode:                 Internal
Exposure Time (secs):         1
Readout Mode:                 Full Vertical Binning
Horizontal binning:           1
Extended Dynamic Range:       off
Horizontally flipped:         false
Vertical Shift Speed (usecs): 9.68
Pixel Readout Rate (MHz):     3
Baseline Clamp:               ON
Clock Amplitude:              Normal
Output Amplifier:             Conventional
Serial Number:                20367
Pre-Amplifier Gain:           4x
Spurious Noise Filter Mode:   No Filter
Photon counted:               false
Data Averaging Filter Mode:   No Filter
SR193i:
Serial Number:                SR-2646
Wavelength (nm):              630
Grating Groove Density (l/mm):300
Grating Blaze:                500nm
Input Side Slit Width (um):   1000



417.6445	327
417.9035	323
418.16251	323
418.42151	292
418.68048	319
418.93948	310
419.19846	325
419.45746	313
419.71643	324
419.97543	297
420.23441	319
420.49341	301
420.75238	301
421.01135	317
421.27032	311
421.5293	312
421.78827	325
422.04724	323
422.30621	326
422.56519	304
422.82416	314
423.08313	318
423.34207	322
423.60104	344
423.85999	332
424.11896	349
424.3779	430
424.63687	467
424.89581	511
425.15475	584
425.41373	624
425.67267	586
425.93161	617
426.19055	607
426.44949	655
426.70844	631
426.96738	627
427.22629	669
427.48523	670
427.74417	652
428.00308	647
428.26202	663
428.52094	655
428.77988	625
429.03879	657
429.2977	662
429.55664	659
429.81555	643
430.07446	653
430.33337	686
430.59229	679
430.8512	633
431.11011	668
431.36899	672
431.6279	666
431.88681	640
432.14569	643
432.4046	687
432.66348	649
432.92239	638
433.18127	628
433.44016	675
433.69907	645
433.95795	634
434.21683	658
434.47571	659
434.73459	632
434.99347	657
435.25232	651
435.5112	590
435.77008	585
436.02896	635
436.28781	625
436.54669	647
436.80554	591
437.06439	604
437.32327	588
437.58212	623
437.84097	589
438.09982	555
438.35867	580
438.61752	578
438.87637	542
439.13522	506
439.39404	525
439.65289	478
439.91174	403
440.17056	384
440.42941	363
440.68823	302
440.94705	349
441.20587	320
441.46472	312
441.72354	318
441.98236	306
442.24118	333
442.5	323
442.75879	325
443.01761	310
443.27643	314
443.53522	301
443.79404	304
444.05283	300
444.31165	318
444.57043	330
444.82922	306
445.08801	317
445.34683	301
445.60562	296
445.86441	299
446.12317	315
446.38196	322
446.64075	315
446.89954	311
447.15829	288
447.41708	298
447.67584	315
447.9346	305
448.19339	319
448.45215	299
448.71091	308
448.96967	312
449.22842	313
449.48718	308
449.74594	340
450.00467	301
450.26343	323
450.52219	304
450.78091	326
451.03967	298
451.2984	319
451.55713	338
451.81589	324
452.07462	334
452.33334	322
452.59207	291
452.8508	306
453.1095	297
453.36823	306
453.62695	336
453.88565	323
454.14438	316
454.40308	303
454.6618	316
454.9205	294
455.1792	310
455.4379	307
455.69659	315
455.95529	319
456.21399	293
456.47269	291
456.73138	309
456.99005	297
457.24875	314
457.50742	287
457.76611	327
458.02478	330
458.28345	309
458.54211	321
458.80078	309
459.05945	286
459.31812	327
459.57678	322
459.83545	303
460.09409	294
460.35275	320
460.61139	312
460.87006	310
461.12869	303
461.38733	310
461.64597	307
461.9046	303
462.16324	312
462.42188	318
462.68051	321
462.93915	333
463.19775	310
463.45639	312
463.715	318
463.97363	322
464.23224	310
464.49084	300
464.74945	331
465.00806	305
465.26666	322
465.52527	312
465.78387	316
466.04248	317
466.30106	310
466.55966	344
466.81824	299
467.07684	326
467.33542	303
467.59399	307
467.85257	312
468.11115	312
468.36972	323
468.6283	303
468.88684	314
469.14542	334
469.40399	331
469.66254	325
469.92108	330
470.17966	299
470.4382	316
470.69675	307
470.95529	329
471.21384	322
471.47238	332
471.7309	313
471.98944	305
472.24799	313
472.5065	317
472.76501	303
473.02356	317
473.28207	314
473.54059	317
473.7991	326
474.05762	340
474.31613	325
474.57462	329
474.83313	315
475.09161	330
475.35013	321
475.60861	309
475.8671	322
476.12561	322
476.38409	304
476.64258	317
476.90106	320
477.15952	303
477.418	315
477.67648	329
477.93494	343
478.19339	332
478.45187	336
478.71033	321
478.96878	312
479.22723	325
479.48569	322
479.74414	335
480.00259	319
480.26102	298
480.51947	337
480.77789	326
481.03635	293
481.29477	331
481.55319	328
481.81161	329
482.07004	335
482.32846	322
482.58688	328
482.84528	322
483.1037	332
483.36209	333
483.62051	330
483.87891	341
484.1373	326
484.39569	344
484.65408	338
484.91248	401
485.17087	417
485.42923	447
485.68762	522
485.94598	565
486.20438	716
486.46274	761
486.7211	859
486.97946	1039
487.23782	1048
487.49619	1182
487.75455	1301
488.01291	1447
488.27124	1593
488.5296	1694
488.78793	1807
489.04626	1960
489.3046	2011
489.56293	2319
489.82126	2421
490.07959	2596
490.33792	2733
490.59622	2903
490.85455	3117
491.11285	3162
491.37119	3182
491.62949	3581
491.88779	3586
492.14609	3864
492.40439	4009
492.66269	4191
492.92096	4304
493.17926	4511
493.43756	4690
493.69583	4943
493.9541	5161
494.21237	5295
494.47064	5409
494.72891	5559
494.98718	5734
495.24545	5908
495.50372	6177
495.76196	6249
496.0202	6583
496.27847	6742
496.53671	6853
496.79495	7092
497.05319	7471
497.31143	7384
497.56967	7692
497.82788	7962
498.08612	8062
498.34433	8304
498.60257	8505
498.86078	8636
499.11899	8852
499.3772	9119
499.63541	9242
499.89362	9490
500.15179	9462
500.41	9500
500.66818	9692
500.92639	9868
501.18457	9985
501.44275	9780
501.70093	10002
501.95911	9823
502.21729	9728
502.47546	10021
502.73361	10014
502.99179	10017
503.24994	10117
503.50809	10086
503.76624	9978
504.02438	10000
504.28253	10098
504.54068	10232
504.79883	10176
505.05695	10267
505.31509	10146
505.57321	9846
505.83133	10038
506.08945	10272
506.34756	10157
506.60568	10210
506.8638	10143
507.12192	10169
507.38	10323
507.63812	10371
507.89621	10102
508.1543	10188
508.41238	10290
508.67047	10132
508.92856	10259
509.18665	10205
509.4447	10479
509.70279	10018
509.96085	10423
510.2189	10291
510.47699	10267
510.73505	10134
510.9931	10158
511.25113	10202
511.50919	10222
511.76724	10157
512.02527	10372
512.28333	10434
512.54132	10159
512.79938	10189
513.05737	10338
513.31543	10460
513.57343	10346
513.83142	10279
514.08948	10353
514.34747	10356
514.60547	10480
514.86346	10187
515.12146	10309
515.37946	10350
515.63745	10059
515.89545	10290
516.15338	10438
516.41138	10222
516.66937	10544
516.92731	10406
517.1853	10177
517.44324	10411
517.70123	10324
517.95917	10196
518.2171	10367
518.4751	10233
518.73303	10123
518.99097	10347
519.2489	10524
519.50684	10119
519.76477	10220
520.02271	10389
520.28058	10202
520.53851	10280
520.79645	10170
521.05432	10142
521.31226	10219
521.57013	10137
521.82806	9882
522.08594	9980
522.34381	9979
522.60175	10282
522.85962	10080
523.11749	10173
523.37537	10046
523.63324	9939
523.89111	9997
524.14899	10018
524.40686	9893
524.66467	9947
524.92255	10081
525.18036	10047
525.43823	9702
525.69604	10068
525.95392	9850
526.21173	9842
526.4696	9831
526.72742	10118
526.98523	9871
527.24304	9936
527.50085	10010
527.75867	9938
528.01648	9828
528.27429	10003
528.53204	9880
528.78986	9765
529.04767	9730
529.30542	9563
529.56323	9685
529.82098	9564
530.0788	9717
530.33655	9746
530.5943	9662
530.85205	9774
531.10986	9600
531.36761	9623
531.62537	9823
531.88312	9691
532.14081	9550
532.39856	9452
532.65631	9522
532.91406	9683
533.17175	9529
533.4295	9498
533.68719	9580
533.94495	9471
534.20264	9419
534.46033	9459
534.71802	9408
534.97571	9425
535.2334	9527
535.49109	9429
535.74878	9318
536.00647	9407
536.26416	9393
536.52185	9458
536.77948	9303
537.03717	9176
537.29486	9152
537.55249	9087
537.81012	9263
538.06781	9282
538.32544	9080
538.58307	9226
538.8407	8906
539.09833	9059
539.35596	9255
539.61359	9019
539.87122	8873
540.12885	9107
540.38647	8952
540.64404	9037
540.90167	8991
541.15924	9015
541.41687	8725
541.67444	8705
541.93201	8814
542.18964	8795
542.4472	8689
542.70477	8659
542.96234	8802
543.21991	8547
543.47748	8605
543.73499	8651
543.99255	8691
544.25012	8653
544.50763	8694
544.7652	8661
545.02271	8485
545.28027	8717
545.53778	8399
545.79529	8524
546.05286	8445
546.31036	8460
546.56787	8429
546.82538	8456
547.08289	8572
547.34033	8401
547.59784	8515
547.85535	8179
548.11279	8377
548.3703	8284
548.62775	8446
548.88525	8278
549.1427	8212
549.40015	8218
549.65765	8119
549.9151	8197
550.17255	8124
550.42999	8115
550.68744	7934
550.94482	8064
551.20227	8033
551.45972	8025
551.7171	7878
551.97455	7922
552.23193	7909
552.48938	7856
552.74677	7895
553.00415	7971
553.2616	7832
553.51898	7843
553.77637	7736
554.03375	8003
554.29114	7827
554.54846	7527
554.80585	7699
555.06323	7636
555.32056	7589
555.57794	7569
555.83527	7579
556.09265	7516
556.34998	7565
556.6073	7456
556.86462	7501
557.12195	7366
557.37927	7539
557.6366	7307
557.89392	7397
558.15125	7374
558.40857	7498
558.66583	7317
558.92316	7364
559.18042	7313
559.43774	7316
559.69501	7406
559.95227	7296
560.20953	7189
560.4668	7230
560.72406	7002
560.98132	7337
561.23859	6967
561.49585	7166
561.75311	7103
562.01031	7021
562.26758	6983
562.52478	7102
562.78204	6838
563.03925	7059
563.29651	6895
563.55371	6952
563.81091	6939
564.06812	6902
564.32532	6774
564.58252	6722
564.83966	6880
565.09686	6840
565.35406	6616
565.61121	6788
565.86841	6676
566.12555	6746
566.38275	6862
566.63989	6565
566.89703	6480
567.15417	6500
567.41132	6606
567.66846	6691
567.9256	6610
568.18274	6489
568.43988	6479
568.69696	6387
568.9541	6431
569.21118	6322
569.46832	6218
569.7254	6363
569.98248	6127
570.23956	6292
570.4967	6274
570.75378	6188
571.01086	6306
571.26788	6091
571.52496	6228
571.78204	6194
572.03906	6090
572.29614	6180
572.55316	6074
572.81024	6069
573.06726	6073
573.32428	6085
573.58136	5979
573.83838	6037
574.0954	6039
574.35236	5986
574.60938	6010
574.86639	5918
575.12341	5929
575.38037	5922
575.63739	5928
575.89435	5852
576.15137	5781
576.40833	5676
576.66528	5588
576.92224	5677
577.1792	5731
577.43616	5737
577.69312	5724
577.95007	5663
578.20697	5634
578.46393	5668
578.72089	5662
578.97778	5584
579.23468	5588
579.49164	5584
579.74854	5518
580.00543	5398
580.26233	5604
580.51923	5545
580.77612	5527
581.03302	5340
581.28986	5394
581.54675	5345
581.80359	5372
582.06049	5351
582.31732	5297
582.57422	5249
582.83105	5226
583.08789	5180
583.34473	5171
583.60156	5081
583.8584	5096
584.11523	5173
584.37201	5102
584.62885	5227
584.88568	5063
585.14246	5034
585.39923	5135
585.65607	5057
585.91284	5033
586.16962	4965
586.42639	4893
586.68317	4815
586.93994	4880
587.19672	4818
587.45343	4891
587.71021	4887
587.96698	4859
588.22369	5016
588.48041	4793
588.73718	4952
588.9939	4718
589.25061	4837
589.50732	4696
589.76404	4808
590.02075	4770
590.27747	4761
590.53412	4679
590.79083	4699
591.04755	4663
591.3042	4520
591.56085	4524
591.81757	4559
592.07422	4556
592.33087	4565
592.58752	4575
592.84418	4492
593.10083	4482
593.35742	4372
593.61407	4436
593.87073	4446
594.12732	4399
594.38391	4507
594.64056	4365
594.89716	4469
595.15375	4307
595.41034	4285
595.66693	4291
595.92352	4265
596.18011	4157
596.43671	4339
596.69324	4104
596.94983	4148
597.20636	4094
597.46289	4078
597.71948	4040
597.97601	4010
598.23254	4212
598.48907	4010
598.74561	4121
599.00214	4116
599.25861	4078
599.51514	4097
599.77167	3988
600.02814	4068
600.28461	3967
600.54114	3988
600.79761	3835
601.05408	3820
601.31055	3821
601.56702	3856
601.82349	3925
602.07996	3895
602.33636	3790
602.59283	3817
602.84924	3774
603.10571	3780
603.36212	3828
603.61853	3809
603.87494	3753
604.13135	3565
604.38776	3772
604.64417	3738
604.90057	3612
605.15698	3686
605.41333	3627
605.66974	3535
605.92609	3616
606.1825	3667
606.43884	3515
606.69519	3522
606.95154	3486
607.20789	3619
607.46423	3519
607.72058	3459
607.97687	3507
608.23322	3424
608.4895	3434
608.74585	3466
609.00214	3388
609.25842	3466
609.51471	3430
609.771	3448
610.02728	3321
610.28357	3388
610.53986	3321
610.79614	3222
611.05237	3362
611.30865	3403
611.56488	3370
611.82111	3286
612.07739	3259
612.33362	3318
612.58984	3198
612.84607	3155
613.10223	3162
613.35846	3179
613.61469	3083
613.87085	3116
614.12708	3107
614.38324	3227
614.63947	3206
614.89563	3090
615.15179	3140
615.40796	3113
615.66412	3180
615.92023	3016
616.17639	3117
616.43256	2914
616.68866	2987
616.94482	2946
617.20093	2932
617.45703	3024
617.71313	2895
617.9693	3094
618.22534	3057
618.48145	2904
618.73755	2958
618.99365	2924
619.24969	2922
619.5058	2868
619.76184	2838
620.01788	2867
620.27399	2801
620.53003	2774
620.78607	2762
621.04211	2943
621.2981	2743
621.55414	2723
621.81018	2777
622.06616	2769
622.3222	2759
622.57819	2765
622.83417	2835
623.09015	2759
623.34613	2735
623.60211	2644
623.85809	2640
624.11407	2719
624.37006	2727
624.62598	2638
624.88196	2697
625.13788	2648
625.3938	2654
625.64972	2568
625.9057	2552
626.16162	2652
626.41748	2647
626.6734	2606
626.92932	2554
627.18518	2548
627.4411	2536
627.69696	2586
627.95288	2528
628.20874	2561
628.4646	2482
628.72046	2529
628.97632	2498
629.23218	2490
629.48798	2482
629.74384	2429
629.99963	2497
630.25549	2395
630.51129	2367
630.76709	2450
631.02289	2476
631.27869	2395
631.53448	2329
631.79028	2270
632.04608	2428
632.30182	2397
632.55762	2369
632.81335	2399
633.06915	2301
633.32489	2365
633.58063	2373
633.83636	2336
634.0921	2331
634.34784	2290
634.60352	2229
634.85925	2280
635.11493	2218
635.37067	2266
635.62634	2280
635.88202	2300
636.1377	2256
636.39337	2257
636.64905	2224
636.90472	2262
637.1604	2124
637.41602	2152
637.67169	2158
637.92731	2166
638.18298	2134
638.4386	2077
638.69421	2179
638.94983	2162
639.20544	2047
639.46106	2139
639.71661	2088
639.97223	2157
640.22778	2081
640.4834	2113
640.73895	2075
640.99451	2048
641.25006	2023
641.50562	2079
641.76117	2086
642.01672	1999
642.27222	2025
642.52777	2048
642.78326	2016
643.03882	1940
643.29431	2026
643.5498	2027
643.8053	1977
644.06079	1953
644.31628	1879
644.57178	1930
644.82721	1979
645.0827	1881
645.33813	1909
645.59357	1927
645.84906	1963
646.10449	2002
646.35992	1914
646.61536	1853
646.87073	1851
647.12616	1950
647.38159	1869
647.63696	1827
647.8924	1827
648.14777	1828
648.40314	1844
648.65851	1862
648.91388	1872
649.16925	1781
649.42462	1783
649.67993	1750
649.9353	1774
650.19061	1755
650.44592	1812
650.70129	1661
650.9566	1726
651.21191	1715
651.46722	1771
651.72247	1797
651.97778	1678
652.23309	1718
652.48834	1760
652.74365	1719
652.9989	1740
653.25415	1729
653.5094	1724
653.76465	1701
654.0199	1758
654.27509	1604
654.53033	1678
654.78558	1678
655.04077	1659
655.29596	1645
655.55115	1663
655.80634	1589
656.06152	1667
656.31671	1511
656.5719	1628
656.82709	1590
657.08221	1642
657.3374	1626
657.59253	1630
657.84766	1629
658.10278	1626
658.35791	1649
658.61304	1544
658.86816	1654
659.12329	1583
659.37836	1531
659.63348	1521
659.88855	1564
660.14362	1543
660.39868	1542
660.65375	1572
660.90881	1469
661.16388	1497
661.41895	1545
661.67395	1522
661.92902	1515
662.18402	1540
662.43903	1526
662.69403	1498
662.94904	1501
663.20404	1495
663.45905	1467
663.71405	1437
663.96899	1566
664.224	1484
664.47894	1455
664.73395	1455
664.98889	1480
665.24384	1491
665.49878	1455
665.75366	1411
666.00861	1457
666.26355	1433
666.51843	1441
666.77338	1429
667.02826	1402
667.28314	1367
667.53802	1435
667.79291	1410
668.04779	1363
668.30261	1431
668.5575	1399
668.81232	1350
669.0672	1455
669.32202	1393
669.57684	1418
669.83167	1382
670.08649	1392
670.34131	1372
670.59613	1351
670.85089	1368
671.10571	1275
671.36047	1326
671.61523	1312
671.87	1326
672.12476	1364
672.37952	1291
672.63428	1336
672.88904	1408
673.14374	1289
673.3985	1353
673.6532	1284
673.9079	1276
674.1626	1326
674.4173	1282
674.672	1294
674.9267	1283
675.1814	1277
675.43604	1251
675.69073	1266
675.94537	1344
676.20001	1181
676.45465	1236
676.70929	1261
676.96393	1235
677.21857	1234
677.47314	1246
677.72778	1233
677.98236	1267
678.23694	1280
678.49158	1209
678.74615	1228
679.00067	1216
679.25525	1229
679.50983	1168
679.7644	1189
680.01892	1187
680.27344	1247
680.52802	1203
680.78253	1281
681.03705	1156
681.29156	1154
681.54602	1235
681.80054	1157
682.05499	1153
682.30951	1120
682.56396	1248
682.81842	1130
683.07288	1157
683.32733	1184
683.58179	1118
683.83624	1135
684.0907	1124
684.34509	1120
684.59949	1163
684.85394	1156
685.10834	1162
685.36273	1113
685.61713	1140
685.87146	1151
686.12585	1098
686.38025	1128
686.63458	1067
686.88892	1062
687.14325	1066
687.39764	1123
687.65192	1155
687.90625	1114
688.16058	1080
688.41492	1111
688.66919	1061
688.92346	1040
689.1778	1097
689.43207	1028
689.68634	1080
689.94061	1074
690.19482	1056
690.4491	1086
690.70331	1068
690.95758	1037
691.21179	1069
691.466	1033
691.72021	1006
691.97443	987
692.22864	1057
692.48285	971
692.737	1060
692.99121	1084
693.24536	1081
693.49951	1062
693.75366	994
694.00781	1055
694.26196	1026
694.51611	955
694.7702	1003
695.02435	995
695.27844	966
695.53253	1004
695.78668	1011
696.04077	1024
696.2948	1001
696.54889	951
696.80298	942
697.05701	976
697.3111	960
697.56512	965
697.81915	1010
698.07318	978
698.32721	966
698.58124	949
698.83521	918
699.08923	990
699.3432	965
699.59723	942
699.8512	913
700.10516	961
700.35913	935
700.61304	957
700.867	923
701.12097	903
701.37488	958
701.62878	970
701.88275	889
702.13666	931
702.3905	948
702.64441	897
702.89832	941
703.15222	926
703.40607	889
703.65991	898
703.91376	881
704.1676	914
704.42145	946
704.67529	903
704.92914	872
705.18292	863
705.43677	950
705.69055	897
705.94434	860
706.19812	909
706.4519	928
706.70569	872
706.95947	894
707.2132	858
707.46698	842
707.7207	840
707.97443	929
708.22815	829
708.48187	872
708.7356	848
708.98932	851
709.24298	881
709.4967	821
709.75037	871
710.00403	850
710.25769	808
710.51135	888
710.76501	831
711.01868	820
711.27228	813
711.52594	836
711.77954	833
712.03314	807
712.28674	812
712.54034	804
712.79395	798
713.04755	787
713.30109	822
713.55469	817
713.80823	787
714.06177	816
714.31531	868
714.56885	841
714.82239	842
715.07587	785
715.32941	728
715.58289	806
715.83643	888
716.0899	787
716.34338	805
716.59686	825
716.85028	727
717.10376	810
717.35718	772
717.61066	769
717.86407	784
718.11749	782
718.37091	800
718.62433	765
718.87775	809
719.1311	746
719.38452	777
719.63788	763
719.89124	784
720.14459	784
720.39795	770
720.65131	755
720.90466	724
721.15796	766
721.41132	730
721.66461	770
721.91791	727
722.1712	783
722.4245	748
722.6778	790
722.93103	771
723.18433	757
723.43756	771
723.6908	788
723.94409	721
724.19733	701
724.4505	743
724.70374	742
724.95697	746
725.21014	748
725.46338	740
725.71655	711
725.96973	712
726.2229	745
726.47607	714
726.72919	699
726.98236	749
727.23547	776
727.48859	740
727.74176	753
727.99487	712
728.24792	713
728.50104	732
728.75415	730
729.0072	672
729.26031	694
729.51337	678
729.76642	744
730.01947	695
730.27252	690
730.52551	679
730.77856	693
731.03156	670
731.28461	704
731.5376	724
731.79059	736
732.04358	688
732.29651	688
732.5495	693
732.80243	686
733.05542	676
733.30835	681
733.56128	707
733.81421	687
734.06714	678
734.32001	651
734.57294	619
734.82581	653
735.07874	699
735.3316	634
735.58447	641
735.83734	671
736.09015	680
736.34302	662
736.59583	638
736.84869	649
737.1015	658
737.35431	625
737.60712	710
737.85992	650
738.11267	645
738.36548	620
738.61823	621
738.87103	649
739.12378	647
739.37653	623
739.62921	631
739.88196	679
740.1347	625
740.38739	666
740.64008	613
740.89282	620
741.14551	662
741.39813	651
741.65082	667
741.9035	614
742.15613	651
742.40881	622
742.66144	608
742.91406	625
743.16669	575
743.41925	617
743.67188	638
743.9245	595
744.17706	597
744.42963	638
744.68219	623
744.93475	582
745.18732	601
745.43988	603
745.69238	620
745.94495	590
746.19745	596
746.44995	615
746.70245	643
746.95496	576
747.20746	565
747.4599	591
747.7124	551
747.96484	600
748.21729	620
748.46973	575
748.72217	596
748.97461	600
749.22699	595
749.47943	588
749.73181	566
749.98419	553
750.23657	566
750.48895	601
750.74133	570
750.99365	580
751.24603	580
751.49835	538
751.75067	574
752.00299	623
752.25531	555
752.50763	522
752.75995	574
753.01221	557
753.26453	575
753.51678	569
753.76904	537
754.0213	539
754.2735	571
754.52576	520
754.77802	544
755.03021	547
755.28241	548
755.53461	583
755.7868	566
756.039	545
756.2912	561
756.54333	548
756.79547	528
757.04767	529
757.2998	543
757.55194	542
757.80408	507
758.05615	508
758.30829	587
758.56036	563
758.81244	546
759.06451	533
759.31659	515
759.56866	539
759.82074	552
760.07275	561
760.32483	518
760.57684	526
760.82886	531
761.08087	533
761.33289	525
761.58484	506
761.83685	483
762.08881	516
762.34076	535
762.59271	478
762.84467	508
763.09662	506
763.34857	516
763.60046	500
763.85242	517
764.10431	535
764.3562	486
764.60809	507
764.85999	508
765.11182	510
765.36371	514
765.61554	543
765.86737	509
766.1192	491
766.37103	497
766.62286	492
766.87463	517
767.12646	537
767.37823	477
767.63	505
767.88177	469
768.13354	488
768.38531	498
768.63708	482
768.88879	519
769.1405	474
769.39221	517
769.64392	525
769.89563	535
770.14734	500
770.39905	475
770.6507	500
770.90234	461
771.15399	505
771.40564	477
771.65729	483
771.90894	481
772.16052	485
772.41217	490
772.66376	485
772.91534	513
773.16693	490
773.41852	486
773.67004	480
773.92163	494
774.17316	465
774.42468	504
774.67627	474
774.92773	473
775.17926	476
775.43079	440
775.68225	488
775.93378	505
776.18524	476
776.43671	461
776.68817	452
776.93958	495
777.19104	464
777.44244	457
777.69391	458
777.94531	448
778.19672	468
778.44806	424
778.69946	480
778.95087	437
779.20221	481
779.45355	485
779.7049	462
779.95624	465
780.20758	447
780.45892	442
780.71021	431
780.96149	458
781.21277	447
781.46405	477
781.71533	445
781.96661	481
782.2179	445
782.46912	450
782.72034	426
782.97156	433
783.22278	478
783.474	450
783.72522	450
783.97638	446
784.2276	444
784.47876	465
784.72992	422
784.98108	436
785.23218	434
785.48334	432
785.7345	427
785.9856	458
786.23669	441
786.48779	447
786.73889	428
786.98993	443
787.24103	395
787.49207	422
787.74316	457
787.9942	449
788.24518	450
788.49622	436
788.74725	437
788.99823	448
789.24927	432
789.50024	427
789.75122	431
790.0022	453
790.25311	424
790.50409	428
790.755	403
791.00592	404
791.25684	434
791.50775	436
791.75867	451
792.00958	434
792.26044	432
792.51129	411
792.76221	417
793.01306	434
793.26385	415
793.51471	412
793.76556	393
794.01636	427
794.26715	427
794.51794	425
794.76874	394
795.01953	416
795.27032	418
795.52106	437
795.77179	434
796.02252	429
796.27325	402
796.52399	409
796.77472	411
797.02539	444
797.27612	402
797.52679	414
797.77747	427
798.02814	448
798.27875	411
798.52942	426
798.78003	416
799.0307	426
799.28131	411
799.53192	412
799.78253	401
800.03308	384
800.28369	379
800.53424	417
800.78479	405
801.03534	405
801.28589	431
801.53644	403
801.78693	388
802.03741	401
802.28796	394
802.53845	412
802.78894	391
803.03937	384
803.28986	413
803.54028	393
803.79077	374
804.0412	408
804.29163	396
804.54199	391
804.79242	389
805.04279	405
805.29321	405
805.54358	380
805.79395	412
806.04431	399
806.29462	397
806.54498	401
806.79529	405
807.04559	384
807.2959	381
807.5462	396
807.79651	409
808.04681	398
808.29706	398
808.5473	398
808.79755	436
809.04779	388
809.29803	402
809.54828	398
809.79846	420
810.04865	383
810.29883	401
810.54901	373
810.79919	383
811.04938	402
811.2995	406
811.54962	432
811.7998	365
812.04993	380
812.29999	394
812.55011	390
812.80023	429
813.05029	413
813.30035	396
813.55042	390
813.80048	392
814.05054	393
814.30054	374
814.55054	381
814.8006	370
815.0506	386
815.3006	401
815.55054	385
815.80054	417
816.05048	397
816.30042	389
816.55042	383
816.80029	385
817.05023	385
817.30017	386
817.55005	383
817.79993	401
818.0498	405
818.29968	406
818.54956	398
818.79944	375
819.04926	410
819.29907	395
819.54895	390
819.79877	375
820.04852	398
820.29834	401
820.5481	366
820.79791	403
821.04767	368
821.29742	387
821.54712	392
821.79688	410
822.04663	395
822.29633	381
822.54602	396
822.79572	385
823.04541	398
823.29504	365
823.54474	377
823.79437	361
824.04401	385
824.29364	380
824.54327	369
824.79291	382
825.04248	380
825.29211	366
825.54169	366
825.79126	345
826.04077	362
