Date and Time:                Mon May 13 09:10:49.592 2024
Software Version:             4.30.30000.0
Temperature (C):              -90
Model:                        DU971P_UVB
Data Type:                    Counts
Acquisition Mode:             Single Scan
Trigger Mode:                 Internal
Exposure Time (secs):         1
Readout Mode:                 Full Vertical Binning
Horizontal binning:           1
Extended Dynamic Range:       off
Horizontally flipped:         false
Vertical Shift Speed (usecs): 9.68
Pixel Readout Rate (MHz):     3
Baseline Clamp:               ON
Clock Amplitude:              Normal
Output Amplifier:             Conventional
Serial Number:                20367
Pre-Amplifier Gain:           4x
Spurious Noise Filter Mode:   No Filter
Photon counted:               false
Data Averaging Filter Mode:   No Filter
SR193i:
Serial Number:                SR-2646
Wavelength (nm):              630
Grating Groove Density (l/mm):300
Grating Blaze:                500nm
Input Side Slit Width (um):   1000



417.6445	307
417.9035	313
418.16251	300
418.42151	291
418.68048	313
418.93948	317
419.19846	319
419.45746	331
419.71643	304
419.97543	299
420.23441	309
420.49341	316
420.75238	304
421.01135	304
421.27032	296
421.5293	295
421.78827	319
422.04724	318
422.30621	308
422.56519	326
422.82416	322
423.08313	328
423.34207	329
423.60104	355
423.85999	336
424.11896	374
424.3779	426
424.63687	444
424.89581	478
425.15475	499
425.41373	496
425.67267	476
425.93161	533
426.19055	492
426.44949	523
426.70844	468
426.96738	522
427.22629	505
427.48523	565
427.74417	548
428.00308	550
428.26202	562
428.52094	550
428.77988	556
429.03879	562
429.2977	562
429.55664	548
429.81555	595
430.07446	532
430.33337	587
430.59229	591
430.8512	605
431.11011	610
431.36899	613
431.6279	614
431.88681	627
432.14569	576
432.4046	657
432.66348	594
432.92239	648
433.18127	643
433.44016	633
433.69907	702
433.95795	690
434.21683	639
434.47571	653
434.73459	707
434.99347	648
435.25232	691
435.5112	669
435.77008	688
436.02896	729
436.28781	689
436.54669	683
436.80554	751
437.06439	705
437.32327	685
437.58212	749
437.84097	704
438.09982	681
438.35867	740
438.61752	719
438.87637	696
439.13522	698
439.39404	674
439.65289	613
439.91174	526
440.17056	499
440.42941	385
440.68823	345
440.94705	323
441.20587	318
441.46472	313
441.72354	338
441.98236	322
442.24118	316
442.5	334
442.75879	302
443.01761	303
443.27643	312
443.53522	304
443.79404	327
444.05283	302
444.31165	309
444.57043	309
444.82922	311
445.08801	322
445.34683	330
445.60562	310
445.86441	314
446.12317	307
446.38196	312
446.64075	319
446.89954	328
447.15829	307
447.41708	308
447.67584	305
447.9346	309
448.19339	295
448.45215	315
448.71091	312
448.96967	317
449.22842	302
449.48718	332
449.74594	339
450.00467	311
450.26343	329
450.52219	307
450.78091	309
451.03967	311
451.2984	330
451.55713	315
451.81589	312
452.07462	317
452.33334	297
452.59207	321
452.8508	326
453.1095	334
453.36823	309
453.62695	292
453.88565	321
454.14438	304
454.40308	307
454.6618	320
454.9205	316
455.1792	318
455.4379	317
455.69659	307
455.95529	297
456.21399	317
456.47269	322
456.73138	335
456.99005	302
457.24875	306
457.50742	322
457.76611	322
458.02478	313
458.28345	325
458.54211	321
458.80078	320
459.05945	308
459.31812	299
459.57678	328
459.83545	312
460.09409	320
460.35275	320
460.61139	315
460.87006	318
461.12869	331
461.38733	339
461.64597	318
461.9046	315
462.16324	306
462.42188	301
462.68051	306
462.93915	312
463.19775	316
463.45639	306
463.715	311
463.97363	315
464.23224	321
464.49084	316
464.74945	304
465.00806	283
465.26666	347
465.52527	321
465.78387	335
466.04248	316
466.30106	315
466.55966	342
466.81824	315
467.07684	296
467.33542	309
467.59399	314
467.85257	320
468.11115	311
468.36972	320
468.6283	342
468.88684	326
469.14542	309
469.40399	297
469.66254	290
469.92108	315
470.17966	303
470.4382	315
470.69675	326
470.95529	322
471.21384	307
471.47238	318
471.7309	322
471.98944	309
472.24799	323
472.5065	334
472.76501	310
473.02356	325
473.28207	338
473.54059	298
473.7991	335
474.05762	313
474.31613	341
474.57462	327
474.83313	324
475.09161	333
475.35013	339
475.60861	306
475.8671	306
476.12561	328
476.38409	326
476.64258	300
476.90106	317
477.15952	298
477.418	309
477.67648	335
477.93494	277
478.19339	318
478.45187	322
478.71033	318
478.96878	312
479.22723	335
479.48569	328
479.74414	310
480.00259	334
480.26102	322
480.51947	328
480.77789	324
481.03635	322
481.29477	335
481.55319	332
481.81161	328
482.07004	331
482.32846	341
482.58688	317
482.84528	315
483.1037	307
483.36209	325
483.62051	307
483.87891	304
484.1373	325
484.39569	340
484.65408	368
484.91248	361
485.17087	396
485.42923	468
485.68762	508
485.94598	556
486.20438	616
486.46274	729
486.7211	826
486.97946	935
487.23782	1019
487.49619	1078
487.75455	1198
488.01291	1343
488.27124	1514
488.5296	1531
488.78793	1716
489.04626	1835
489.3046	1979
489.56293	2059
489.82126	2240
490.07959	2418
490.33792	2471
490.59622	2687
490.85455	2832
491.11285	3068
491.37119	3085
491.62949	3270
491.88779	3470
492.14609	3550
492.40439	3710
492.66269	3802
492.92096	4001
493.17926	4175
493.43756	4294
493.69583	4627
493.9541	4692
494.21237	4903
494.47064	4979
494.72891	5180
494.98718	5271
495.24545	5581
495.50372	5823
495.76196	5944
496.0202	5906
496.27847	6328
496.53671	6409
496.79495	6779
497.05319	6623
497.31143	7035
497.56967	7012
497.82788	7352
498.08612	7515
498.34433	7531
498.60257	7846
498.86078	7904
499.11899	8066
499.3772	8279
499.63541	8554
499.89362	8491
500.15179	8745
500.41	8876
500.66818	9060
500.92639	8977
501.18457	9218
501.44275	8843
501.70093	9114
501.95911	9162
502.21729	9042
502.47546	9176
502.73361	9220
502.99179	9125
503.24994	9262
503.50809	9385
503.76624	9474
504.02438	9378
504.28253	9284
504.54068	9276
504.79883	9428
505.05695	9435
505.31509	9595
505.57321	9433
505.83133	9266
506.08945	9431
506.34756	9465
506.60568	9365
506.8638	9403
507.12192	9374
507.38	9404
507.63812	9489
507.89621	9476
508.1543	9573
508.41238	9524
508.67047	9503
508.92856	9618
509.18665	9623
509.4447	9309
509.70279	9429
509.96085	9435
510.2189	9419
510.47699	9623
510.73505	9628
510.9931	9563
511.25113	9689
511.50919	9615
511.76724	9559
512.02527	9535
512.28333	9787
512.54132	9517
512.79938	9671
513.05737	9695
513.31543	9527
513.57343	9712
513.83142	9700
514.08948	9569
514.34747	9614
514.60547	9487
514.86346	9673
515.12146	9655
515.37946	9528
515.63745	9827
515.89545	9711
516.15338	9614
516.41138	9815
516.66937	9759
516.92731	9693
517.1853	9462
517.44324	9890
517.70123	9576
517.95917	9563
518.2171	9702
518.4751	9662
518.73303	9659
518.99097	9819
519.2489	9332
519.50684	9662
519.76477	9590
520.02271	9586
520.28058	9385
520.53851	9343
520.79645	9619
521.05432	9504
521.31226	9648
521.57013	9433
521.82806	9528
522.08594	9400
522.34381	9517
522.60175	9492
522.85962	9598
523.11749	9742
523.37537	9476
523.63324	9380
523.89111	9401
524.14899	9336
524.40686	9515
524.66467	9396
524.92255	9418
525.18036	9340
525.43823	9281
525.69604	9305
525.95392	9486
526.21173	9274
526.4696	9293
526.72742	9264
526.98523	9504
527.24304	9315
527.50085	9236
527.75867	9288
528.01648	9369
528.27429	9204
528.53204	9097
528.78986	9063
529.04767	9357
529.30542	9313
529.56323	9272
529.82098	9195
530.0788	9165
530.33655	9134
530.5943	9092
530.85205	9072
531.10986	9339
531.36761	9240
531.62537	9277
531.88312	9109
532.14081	9107
532.39856	8990
532.65631	8910
532.91406	8847
533.17175	9017
533.4295	9013
533.68719	9035
533.94495	8926
534.20264	8998
534.46033	8949
534.71802	8802
534.97571	8916
535.2334	8764
535.49109	8817
535.74878	8715
536.00647	8743
536.26416	8883
536.52185	8743
536.77948	8774
537.03717	8650
537.29486	8588
537.55249	8649
537.81012	8652
538.06781	8610
538.32544	8587
538.58307	8625
538.8407	8685
539.09833	8755
539.35596	8625
539.61359	8657
539.87122	8461
540.12885	8256
540.38647	8476
540.64404	8360
540.90167	8494
541.15924	8416
541.41687	8390
541.67444	8193
541.93201	8371
542.18964	8390
542.4472	8208
542.70477	8267
542.96234	8086
543.21991	8233
543.47748	8208
543.73499	8294
543.99255	8059
544.25012	8145
544.50763	8186
544.7652	8188
545.02271	8050
545.28027	8126
545.53778	8122
545.79529	8063
546.05286	7987
546.31036	7969
546.56787	7920
546.82538	8078
547.08289	7835
547.34033	7940
547.59784	8047
547.85535	7658
548.11279	7782
548.3703	7821
548.62775	7763
548.88525	7734
549.1427	7910
549.40015	7905
549.65765	7598
549.9151	7726
550.17255	7797
550.42999	7692
550.68744	7548
550.94482	7490
551.20227	7538
551.45972	7598
551.7171	7518
551.97455	7446
552.23193	7331
552.48938	7435
552.74677	7407
553.00415	7508
553.2616	7612
553.51898	7294
553.77637	7296
554.03375	7376
554.29114	7370
554.54846	7115
554.80585	7230
555.06323	7082
555.32056	7266
555.57794	7100
555.83527	7269
556.09265	7239
556.34998	7246
556.6073	7091
556.86462	6992
557.12195	7181
557.37927	7156
557.6366	6960
557.89392	7013
558.15125	6953
558.40857	6891
558.66583	6966
558.92316	6889
559.18042	6842
559.43774	6889
559.69501	6836
559.95227	6802
560.20953	6707
560.4668	6703
560.72406	6842
560.98132	6778
561.23859	6709
561.49585	6634
561.75311	6733
562.01031	6664
562.26758	6708
562.52478	6778
562.78204	6631
563.03925	6590
563.29651	6408
563.55371	6515
563.81091	6457
564.06812	6429
564.32532	6402
564.58252	6416
564.83966	6369
565.09686	6257
565.35406	6306
565.61121	6402
565.86841	6277
566.12555	6154
566.38275	6223
566.63989	6379
566.89703	6213
567.15417	6147
567.41132	6230
567.66846	6325
567.9256	6207
568.18274	6137
568.43988	6043
568.69696	6112
568.9541	6104
569.21118	6107
569.46832	6022
569.7254	6044
569.98248	5984
570.23956	5960
570.4967	6007
570.75378	5856
571.01086	5993
571.26788	5895
571.52496	5839
571.78204	5791
572.03906	5782
572.29614	5757
572.55316	5730
572.81024	5689
573.06726	5567
573.32428	5687
573.58136	5628
573.83838	5626
574.0954	5561
574.35236	5665
574.60938	5679
574.86639	5456
575.12341	5561
575.38037	5508
575.63739	5488
575.89435	5513
576.15137	5395
576.40833	5520
576.66528	5572
576.92224	5353
577.1792	5542
577.43616	5579
577.69312	5387
577.95007	5411
578.20697	5236
578.46393	5326
578.72089	5316
578.97778	5228
579.23468	5343
579.49164	5354
579.74854	5365
580.00543	5366
580.26233	5282
580.51923	5195
580.77612	5157
581.03302	5016
581.28986	5192
581.54675	5142
581.80359	5016
582.06049	5087
582.31732	5037
582.57422	5090
582.83105	5108
583.08789	5026
583.34473	5064
583.60156	5020
583.8584	5075
584.11523	4857
584.37201	4968
584.62885	4825
584.88568	4903
585.14246	4779
585.39923	4785
585.65607	4891
585.91284	4714
586.16962	4601
586.42639	4608
586.68317	4743
586.93994	4658
587.19672	4628
587.45343	4760
587.71021	4679
587.96698	4606
588.22369	4613
588.48041	4477
588.73718	4595
588.9939	4608
589.25061	4609
589.50732	4564
589.76404	4583
590.02075	4478
590.27747	4368
590.53412	4462
590.79083	4391
591.04755	4423
591.3042	4374
591.56085	4330
591.81757	4383
592.07422	4337
592.33087	4236
592.58752	4186
592.84418	4281
593.10083	4298
593.35742	4206
593.61407	4144
593.87073	4103
594.12732	4108
594.38391	4188
594.64056	4146
594.89716	4028
595.15375	4290
595.41034	4135
595.66693	4212
595.92352	4070
596.18011	4142
596.43671	4068
596.69324	3905
596.94983	3963
597.20636	3961
597.46289	3887
597.71948	3958
597.97601	3890
598.23254	3910
598.48907	3892
598.74561	3868
599.00214	3825
599.25861	3796
599.51514	3828
599.77167	3822
600.02814	3791
600.28461	3760
600.54114	3681
600.79761	3642
601.05408	3589
601.31055	3695
601.56702	3685
601.82349	3638
602.07996	3715
602.33636	3609
602.59283	3631
602.84924	3475
603.10571	3625
603.36212	3575
603.61853	3434
603.87494	3492
604.13135	3552
604.38776	3518
604.64417	3473
604.90057	3428
605.15698	3487
605.41333	3561
605.66974	3473
605.92609	3512
606.1825	3246
606.43884	3339
606.69519	3360
606.95154	3346
607.20789	3370
607.46423	3405
607.72058	3292
607.97687	3265
608.23322	3263
608.4895	3388
608.74585	3343
609.00214	3358
609.25842	3266
609.51471	3320
609.771	3211
610.02728	3121
610.28357	3284
610.53986	3064
610.79614	3195
611.05237	3113
611.30865	3119
611.56488	3135
611.82111	3070
612.07739	3053
612.33362	3076
612.58984	2997
612.84607	3036
613.10223	3160
613.35846	3032
613.61469	2986
613.87085	3060
614.12708	3092
614.38324	2966
614.63947	3050
614.89563	2974
615.15179	2832
615.40796	2924
615.66412	2974
615.92023	2973
616.17639	2930
616.43256	2806
616.68866	2950
616.94482	2865
617.20093	2851
617.45703	2871
617.71313	2808
617.9693	2834
618.22534	2805
618.48145	2917
618.73755	2688
618.99365	2829
619.24969	2737
619.5058	2686
619.76184	2798
620.01788	2654
620.27399	2719
620.53003	2726
620.78607	2694
621.04211	2595
621.2981	2720
621.55414	2608
621.81018	2678
622.06616	2719
622.3222	2652
622.57819	2733
622.83417	2576
623.09015	2575
623.34613	2606
623.60211	2636
623.85809	2561
624.11407	2406
624.37006	2545
624.62598	2566
624.88196	2440
625.13788	2554
625.3938	2452
625.64972	2362
625.9057	2465
626.16162	2457
626.41748	2464
626.6734	2522
626.92932	2453
627.18518	2353
627.4411	2450
627.69696	2416
627.95288	2438
628.20874	2348
628.4646	2384
628.72046	2366
628.97632	2402
629.23218	2315
629.48798	2371
629.74384	2282
629.99963	2323
630.25549	2253
630.51129	2380
630.76709	2388
631.02289	2325
631.27869	2245
631.53448	2295
631.79028	2298
632.04608	2273
632.30182	2304
632.55762	2148
632.81335	2236
633.06915	2256
633.32489	2274
633.58063	2213
633.83636	2140
634.0921	2225
634.34784	2195
634.60352	2226
634.85925	2070
635.11493	2136
635.37067	2098
635.62634	2076
635.88202	2122
636.1377	2101
636.39337	2140
636.64905	2062
636.90472	2051
637.1604	2035
637.41602	2110
637.67169	2115
637.92731	1999
638.18298	2102
638.4386	1987
638.69421	1930
638.94983	2067
639.20544	2058
639.46106	2090
639.71661	1999
639.97223	2049
640.22778	1954
640.4834	1892
640.73895	2023
640.99451	2094
641.25006	1943
641.50562	1884
641.76117	1927
642.01672	1867
642.27222	1908
642.52777	1878
642.78326	1923
643.03882	1924
643.29431	1812
643.5498	1910
643.8053	1783
644.06079	1896
644.31628	1788
644.57178	1797
644.82721	1798
645.0827	1841
645.33813	1834
645.59357	1764
645.84906	1842
646.10449	1803
646.35992	1858
646.61536	1897
646.87073	1837
647.12616	1819
647.38159	1762
647.63696	1694
647.8924	1792
648.14777	1774
648.40314	1820
648.65851	1726
648.91388	1756
649.16925	1681
649.42462	1742
649.67993	1707
649.9353	1748
650.19061	1747
650.44592	1649
650.70129	1701
650.9566	1675
651.21191	1668
651.46722	1677
651.72247	1607
651.97778	1672
652.23309	1687
652.48834	1685
652.74365	1652
652.9989	1597
653.25415	1596
653.5094	1637
653.76465	1589
654.0199	1538
654.27509	1666
654.53033	1571
654.78558	1556
655.04077	1502
655.29596	1597
655.55115	1621
655.80634	1545
656.06152	1521
656.31671	1558
656.5719	1568
656.82709	1492
657.08221	1572
657.3374	1568
657.59253	1486
657.84766	1554
658.10278	1530
658.35791	1509
658.61304	1500
658.86816	1463
659.12329	1524
659.37836	1533
659.63348	1473
659.88855	1508
660.14362	1516
660.39868	1509
660.65375	1484
660.90881	1422
661.16388	1440
661.41895	1455
661.67395	1514
661.92902	1447
662.18402	1485
662.43903	1432
662.69403	1377
662.94904	1475
663.20404	1448
663.45905	1428
663.71405	1475
663.96899	1431
664.224	1392
664.47894	1447
664.73395	1397
664.98889	1449
665.24384	1374
665.49878	1353
665.75366	1341
666.00861	1382
666.26355	1416
666.51843	1291
666.77338	1379
667.02826	1345
667.28314	1334
667.53802	1325
667.79291	1388
668.04779	1376
668.30261	1306
668.5575	1321
668.81232	1350
669.0672	1336
669.32202	1349
669.57684	1349
669.83167	1334
670.08649	1310
670.34131	1283
670.59613	1322
670.85089	1247
671.10571	1292
671.36047	1234
671.61523	1273
671.87	1271
672.12476	1298
672.37952	1303
672.63428	1258
672.88904	1186
673.14374	1204
673.3985	1221
673.6532	1241
673.9079	1255
674.1626	1188
674.4173	1241
674.672	1199
674.9267	1216
675.1814	1231
675.43604	1188
675.69073	1217
675.94537	1158
676.20001	1178
676.45465	1254
676.70929	1218
676.96393	1215
677.21857	1184
677.47314	1181
677.72778	1156
677.98236	1200
678.23694	1187
678.49158	1188
678.74615	1167
679.00067	1207
679.25525	1135
679.50983	1186
679.7644	1194
680.01892	1156
680.27344	1148
680.52802	1172
680.78253	1156
681.03705	1152
681.29156	1144
681.54602	1168
681.80054	1159
682.05499	1177
682.30951	1119
682.56396	1137
682.81842	1126
683.07288	1151
683.32733	1152
683.58179	1119
683.83624	1132
684.0907	1063
684.34509	1056
684.59949	1112
684.85394	1164
685.10834	1102
685.36273	1169
685.61713	1119
685.87146	1052
686.12585	1037
686.38025	1087
686.63458	1016
686.88892	1096
687.14325	1072
687.39764	1072
687.65192	1032
687.90625	1061
688.16058	1022
688.41492	1043
688.66919	1031
688.92346	1036
689.1778	1039
689.43207	1093
689.68634	1011
689.94061	1038
690.19482	986
690.4491	991
690.70331	947
690.95758	1010
691.21179	1076
691.466	997
691.72021	970
691.97443	990
692.22864	993
692.48285	985
692.737	1003
692.99121	947
693.24536	937
693.49951	1002
693.75366	961
694.00781	967
694.26196	970
694.51611	995
694.7702	968
695.02435	991
695.27844	962
695.53253	1034
695.78668	1005
696.04077	973
696.2948	964
696.54889	953
696.80298	973
697.05701	985
697.3111	952
697.56512	953
697.81915	981
698.07318	942
698.32721	938
698.58124	927
698.83521	961
699.08923	904
699.3432	897
699.59723	928
699.8512	901
700.10516	959
700.35913	887
700.61304	892
700.867	926
701.12097	933
701.37488	911
701.62878	902
701.88275	883
702.13666	852
702.3905	842
702.64441	905
702.89832	925
703.15222	855
703.40607	877
703.65991	834
703.91376	887
704.1676	866
704.42145	850
704.67529	822
704.92914	896
705.18292	867
705.43677	899
705.69055	814
705.94434	815
706.19812	839
706.4519	847
706.70569	823
706.95947	823
707.2132	868
707.46698	839
707.7207	887
707.97443	836
708.22815	845
708.48187	828
708.7356	809
708.98932	839
709.24298	786
709.4967	833
709.75037	835
710.00403	786
710.25769	827
710.51135	809
710.76501	849
711.01868	767
711.27228	822
711.52594	820
711.77954	798
712.03314	816
712.28674	803
712.54034	760
712.79395	807
713.04755	742
713.30109	786
713.55469	825
713.80823	736
714.06177	808
714.31531	745
714.56885	779
714.82239	771
715.07587	804
715.32941	736
715.58289	762
715.83643	754
716.0899	763
716.34338	808
716.59686	800
716.85028	772
717.10376	747
717.35718	770
717.61066	770
717.86407	725
718.11749	768
718.37091	780
718.62433	755
718.87775	743
719.1311	741
719.38452	751
719.63788	856
719.89124	719
720.14459	776
720.39795	747
720.65131	741
720.90466	762
721.15796	707
721.41132	756
721.66461	741
721.91791	707
722.1712	694
722.4245	745
722.6778	718
722.93103	678
723.18433	715
723.43756	730
723.6908	683
723.94409	696
724.19733	689
724.4505	731
724.70374	696
724.95697	695
725.21014	704
725.46338	679
725.71655	674
725.96973	696
726.2229	699
726.47607	725
726.72919	724
726.98236	709
727.23547	697
727.48859	690
727.74176	687
727.99487	704
728.24792	717
728.50104	724
728.75415	740
729.0072	719
729.26031	714
729.51337	721
729.76642	672
730.01947	667
730.27252	690
730.52551	718
730.77856	723
731.03156	685
731.28461	699
731.5376	688
731.79059	710
732.04358	664
732.29651	670
732.5495	661
732.80243	709
733.05542	668
733.30835	653
733.56128	682
733.81421	708
734.06714	677
734.32001	653
734.57294	614
734.82581	608
735.07874	625
735.3316	652
735.58447	636
735.83734	636
736.09015	593
736.34302	654
736.59583	635
736.84869	673
737.1015	678
737.35431	613
737.60712	597
737.85992	612
738.11267	656
738.36548	645
738.61823	638
738.87103	614
739.12378	586
739.37653	598
739.62921	649
739.88196	606
740.1347	629
740.38739	569
740.64008	621
740.89282	600
741.14551	615
741.39813	602
741.65082	644
741.9035	623
742.15613	627
742.40881	582
742.66144	608
742.91406	598
743.16669	565
743.41925	569
743.67188	588
743.9245	610
744.17706	608
744.42963	566
744.68219	609
744.93475	592
745.18732	563
745.43988	579
745.69238	557
745.94495	630
746.19745	598
746.44995	588
746.70245	568
746.95496	589
747.20746	578
747.4599	585
747.7124	574
747.96484	571
748.21729	606
748.46973	582
748.72217	611
748.97461	595
749.22699	544
749.47943	548
749.73181	567
749.98419	575
750.23657	553
750.48895	550
750.74133	567
750.99365	559
751.24603	559
751.49835	528
751.75067	549
752.00299	560
752.25531	551
752.50763	552
752.75995	565
753.01221	526
753.26453	548
753.51678	546
753.76904	564
754.0213	566
754.2735	543
754.52576	537
754.77802	547
755.03021	524
755.28241	549
755.53461	546
755.7868	566
756.039	565
756.2912	514
756.54333	537
756.79547	517
757.04767	540
757.2998	546
757.55194	544
757.80408	517
758.05615	499
758.30829	500
758.56036	548
758.81244	509
759.06451	554
759.31659	528
759.56866	514
759.82074	496
760.07275	496
760.32483	522
760.57684	499
760.82886	491
761.08087	497
761.33289	484
761.58484	546
761.83685	512
762.08881	513
762.34076	493
762.59271	498
762.84467	488
763.09662	510
763.34857	487
763.60046	505
763.85242	510
764.10431	542
764.3562	483
764.60809	519
764.85999	503
765.11182	483
765.36371	484
765.61554	519
765.86737	546
766.1192	522
766.37103	516
766.62286	478
766.87463	479
767.12646	482
767.37823	503
767.63	473
767.88177	517
768.13354	513
768.38531	505
768.63708	473
768.88879	526
769.1405	478
769.39221	480
769.64392	468
769.89563	498
770.14734	451
770.39905	490
770.6507	518
770.90234	467
771.15399	501
771.40564	470
771.65729	474
771.90894	498
772.16052	484
772.41217	485
772.66376	480
772.91534	475
773.16693	453
773.41852	473
773.67004	474
773.92163	467
774.17316	480
774.42468	466
774.67627	505
774.92773	470
775.17926	458
775.43079	474
775.68225	463
775.93378	437
776.18524	443
776.43671	458
776.68817	455
776.93958	439
777.19104	462
777.44244	441
777.69391	484
777.94531	451
778.19672	423
778.44806	483
778.69946	437
778.95087	423
779.20221	451
779.45355	468
779.7049	442
779.95624	455
780.20758	474
780.45892	464
780.71021	450
780.96149	449
781.21277	437
781.46405	447
781.71533	425
781.96661	423
782.2179	444
782.46912	455
782.72034	435
782.97156	450
783.22278	429
783.474	448
783.72522	442
783.97638	443
784.2276	445
784.47876	431
784.72992	439
784.98108	464
785.23218	439
785.48334	439
785.7345	433
785.9856	412
786.23669	430
786.48779	446
786.73889	406
786.98993	435
787.24103	410
787.49207	432
787.74316	434
787.9942	446
788.24518	439
788.49622	435
788.74725	421
788.99823	414
789.24927	447
789.50024	425
789.75122	436
790.0022	422
790.25311	425
790.50409	398
790.755	433
791.00592	439
791.25684	407
791.50775	431
791.75867	443
792.00958	414
792.26044	417
792.51129	402
792.76221	429
793.01306	437
793.26385	431
793.51471	396
793.76556	426
794.01636	388
794.26715	410
794.51794	395
794.76874	405
795.01953	433
795.27032	432
795.52106	414
795.77179	407
796.02252	444
796.27325	399
796.52399	427
796.77472	398
797.02539	418
797.27612	420
797.52679	411
797.77747	416
798.02814	426
798.27875	414
798.52942	408
798.78003	396
799.0307	444
799.28131	407
799.53192	418
799.78253	412
800.03308	392
800.28369	397
800.53424	417
800.78479	384
801.03534	388
801.28589	404
801.53644	396
801.78693	407
802.03741	385
802.28796	402
802.53845	411
802.78894	375
803.03937	410
803.28986	384
803.54028	414
803.79077	389
804.0412	433
804.29163	416
804.54199	405
804.79242	409
805.04279	399
805.29321	425
805.54358	402
805.79395	401
806.04431	400
806.29462	367
806.54498	394
806.79529	389
807.04559	398
807.2959	411
807.5462	404
807.79651	388
808.04681	374
808.29706	406
808.5473	382
808.79755	400
809.04779	387
809.29803	380
809.54828	367
809.79846	395
810.04865	382
810.29883	397
810.54901	370
810.79919	363
811.04938	417
811.2995	394
811.54962	373
811.7998	406
812.04993	397
812.29999	411
812.55011	385
812.80023	403
813.05029	397
813.30035	393
813.55042	376
813.80048	371
814.05054	408
814.30054	378
814.55054	376
814.8006	389
815.0506	405
815.3006	380
815.55054	394
815.80054	391
816.05048	378
816.30042	359
816.55042	376
816.80029	391
817.05023	393
817.30017	386
817.55005	359
817.79993	388
818.0498	385
818.29968	405
818.54956	386
818.79944	383
819.04926	358
819.29907	368
819.54895	375
819.79877	392
820.04852	381
820.29834	368
820.5481	383
820.79791	401
821.04767	382
821.29742	387
821.54712	381
821.79688	377
822.04663	375
822.29633	377
822.54602	400
822.79572	348
823.04541	372
823.29504	369
823.54474	369
823.79437	402
824.04401	388
824.29364	389
824.54327	385
824.79291	364
825.04248	402
825.29211	384
825.54169	367
825.79126	355
826.04077	392
