Date and Time:                Thu Apr 18 12:23:20.980 2024
Software Version:             4.30.30000.0
Temperature (C):              -90
Model:                        DU971P_UVB
Data Type:                    Counts
Acquisition Mode:             Single Scan
Trigger Mode:                 Internal
Exposure Time (secs):         0.5
Readout Mode:                 Full Vertical Binning
Horizontal binning:           1
Extended Dynamic Range:       off
Horizontally flipped:         false
Vertical Shift Speed (usecs): 9.68
Pixel Readout Rate (MHz):     3
Baseline Clamp:               ON
Clock Amplitude:              Normal
Output Amplifier:             Conventional
Serial Number:                20367
Pre-Amplifier Gain:           4x
Spurious Noise Filter Mode:   No Filter
Photon counted:               false
Data Averaging Filter Mode:   No Filter
SR193i:
Serial Number:                SR-2646
Wavelength (nm):              660
Grating Groove Density (l/mm):300
Grating Blaze:                500nm
Input Side Slit Width (um):   1000



447.98325	6426
448.24188	6557
448.50052	6548
448.75912	6605
449.01776	6739
449.2764	6774
449.535	7030
449.79364	6863
450.05225	6931
450.31085	6957
450.56949	6987
450.82809	6993
451.0867	6805
451.34531	6666
451.60391	6600
451.86252	6714
452.12112	6503
452.37973	6478
452.63834	6348
452.89691	6191
453.15552	6157
453.41412	6039
453.6727	6050
453.9313	5758
454.18988	5864
454.44846	5813
454.70706	5797
454.96564	5656
455.22421	5513
455.48279	5556
455.74136	5473
455.99994	5462
456.25851	5380
456.51709	5427
456.77567	5315
457.03424	5374
457.29279	5234
457.55136	5288
457.80991	5374
458.06848	5303
458.32703	5217
458.5856	5284
458.84415	5367
459.10269	5199
459.36124	5256
459.61978	5246
459.87833	5202
460.13687	5235
460.39542	5291
460.65396	5334
460.91251	5204
461.17102	5216
461.42957	5372
461.68811	5277
461.94662	5365
462.20514	5359
462.46368	5407
462.7222	5340
462.98071	5479
463.23923	5359
463.49777	5544
463.75629	5480
464.01477	5555
464.27328	5515
464.5318	5770
464.79031	5656
465.0488	5453
465.30731	5738
465.56583	5763
465.82431	5841
466.08279	5741
466.34131	5987
466.59979	5995
466.85828	6034
467.11676	5991
467.37524	6083
467.63373	6147
467.89221	6157
468.1507	6194
468.40918	6217
468.66763	6267
468.92612	6543
469.18457	6469
469.44305	6502
469.70151	6539
469.95999	6394
470.21844	6649
470.4769	6641
470.73535	6814
470.9938	6858
471.25226	6897
471.51071	6861
471.76917	7003
472.02759	7003
472.28604	7227
472.54449	7136
472.80292	7157
473.06137	7147
473.31979	7226
473.57822	7390
473.83664	7315
474.09506	7284
474.35352	7365
474.61191	7666
474.87033	7428
475.12875	7510
475.38718	7679
475.6456	7693
475.90399	7576
476.16241	7805
476.42081	7776
476.6792	7927
476.93762	7935
477.19601	7931
477.45441	7990
477.7128	8019
477.97119	7990
478.22958	8058
478.48798	8162
478.74637	8058
479.00473	8205
479.26312	8290
479.52148	8150
479.77988	8149
480.03824	8344
480.2966	8313
480.55496	8215
480.81335	8248
481.07172	8162
481.33005	8384
481.58841	8510
481.84677	8389
482.10513	8307
482.36346	8452
482.62183	8594
482.88016	8446
483.13852	8503
483.39685	8499
483.65518	8586
483.91351	8365
484.17184	8536
484.43018	8375
484.68851	8554
484.94684	8591
485.20517	8434
485.46347	8648
485.7218	8480
485.9801	8512
486.23843	8592
486.49673	8489
486.75504	8616
487.01334	8847
487.27164	8652
487.52994	8537
487.78824	8497
488.04654	8436
488.30484	8456
488.56311	8506
488.82141	8599
489.07968	8788
489.33798	8597
489.59625	8402
489.85452	8613
490.11279	8536
490.37106	8678
490.62933	8373
490.8876	8532
491.14587	8450
491.40411	8643
491.66238	8655
491.92065	8496
492.17889	8552
492.43713	8563
492.69537	8362
492.95364	8532
493.21188	8634
493.47012	8382
493.72833	8678
493.98657	8575
494.24481	8550
494.50305	8676
494.76126	8481
495.0195	8523
495.27771	8669
495.53592	8558
495.79413	8488
496.05234	8493
496.31055	8382
496.56876	8674
496.82697	8614
497.08517	8772
497.34335	8541
497.60156	8622
497.85974	8652
498.11795	8370
498.37613	8530
498.63431	8625
498.89249	8589
499.15067	8580
499.40884	8552
499.66702	8333
499.92517	8510
500.18335	8676
500.44153	8444
500.69968	8550
500.95782	8601
501.216	8496
501.47415	8589
501.7323	8697
501.99045	8467
502.24857	8552
502.50671	8636
502.76486	8349
503.02298	8344
503.28113	8648
503.53925	8554
503.79739	8455
504.05551	8397
504.31363	8506
504.57175	8510
504.82986	8646
505.08798	8542
505.34607	8492
505.60419	8499
505.86227	8445
506.12039	8544
506.37848	8534
506.63657	8438
506.89465	8522
507.15277	8415
507.41083	8568
507.66891	8486
507.927	8560
508.18509	8350
508.44315	8582
508.70123	8120
508.95929	8305
509.21735	8471
509.4754	8296
509.73346	8455
509.99152	8189
510.24957	8248
510.50763	8365
510.76569	8477
511.02371	8258
511.28174	8259
511.53979	8095
511.79782	8264
512.05585	8453
512.3139	8216
512.5719	8131
512.82996	8287
513.08795	8235
513.34595	8281
513.60394	8219
513.862	8251
514.12	8507
514.37799	8194
514.63599	8104
514.89398	8041
515.15198	8178
515.40997	8165
515.66797	8206
515.92596	8057
516.1839	8086
516.44189	8139
516.69989	8066
516.95782	8184
517.21582	8176
517.47375	8286
517.73175	8139
517.98969	8165
518.24762	8058
518.50562	8007
518.76355	8047
519.02148	8228
519.27942	8179
519.53735	7916
519.79529	7953
520.05322	8086
520.31116	8086
520.56909	8054
520.82703	8046
521.0849	7925
521.34283	7961
521.60077	7882
521.85864	7929
522.11658	8010
522.37445	7760
522.63239	7799
522.89026	7719
523.14819	7708
523.40607	7704
523.66394	7596
523.92181	7732
524.17969	7475
524.43756	7836
524.69543	7626
524.95331	7669
525.21118	7625
525.46906	7687
525.72693	7577
525.98474	7620
526.24261	7614
526.50049	7517
526.7583	7583
527.01617	7681
527.27399	7530
527.5318	7506
527.78967	7436
528.04749	7447
528.3053	7555
528.56311	7515
528.82098	7549
529.0788	7401
529.33661	7371
529.59442	7460
529.85217	7348
530.10999	7407
530.3678	7280
530.62561	7386
530.88336	7324
531.14117	7227
531.39893	7261
531.65674	7324
531.91449	7252
532.1723	7351
532.43005	6951
532.68781	7153
532.94556	7032
533.20337	7282
533.46112	7043
533.71887	7163
533.97662	7040
534.23438	7336
534.49207	7161
534.74982	7120
535.00757	7061
535.26532	7111
535.52301	6993
535.78076	7077
536.03845	6986
536.2962	6926
536.55389	6914
536.81158	6957
537.06934	6893
537.32703	6822
537.58472	6888
537.84241	6824
538.1001	7033
538.35779	6779
538.61548	6738
538.87317	6705
539.13086	6774
539.38849	6822
539.64618	6785
539.90387	6848
540.1615	6598
540.41919	6610
540.67682	6740
540.93445	6683
541.19214	6768
541.44977	6620
541.7074	6592
541.96503	6633
542.22266	6732
542.48029	6648
542.73792	6638
542.99554	6576
543.25317	6530
543.5108	6599
543.76837	6360
544.026	6322
544.28363	6573
544.5412	6504
544.79883	6364
545.0564	6327
545.31396	6522
545.57153	6493
545.82916	6456
546.08673	6359
546.3443	6450
546.60187	6425
546.85944	6320
547.117	6300
547.37457	6315
547.63208	6472
547.88965	6443
548.14722	6284
548.40472	6318
548.66229	6339
548.9198	6329
549.17737	6404
549.43488	6064
549.69238	6222
549.94989	6178
550.20746	6066
550.46497	6138
550.72247	6223
550.97998	6207
551.23749	6254
551.49493	6157
551.75244	6152
552.00995	6148
552.2674	6114
552.5249	6039
552.78235	6200
553.03986	6102
553.2973	5889
553.55481	6025
553.81226	6097
554.0697	6067
554.32715	5976
554.58459	6043
554.84204	5946
555.09949	6110
555.35693	6010
555.61438	5923
555.87177	5960
556.12921	5858
556.38666	5953
556.64404	5821
556.90149	5853
557.15887	5990
557.41626	5867
557.67371	6046
557.93109	5944
558.18848	5824
558.44586	6052
558.70325	5812
558.96063	5845
559.21802	5869
559.4754	5885
559.73273	5912
559.99011	5901
560.2475	5993
560.50482	5861
560.76221	5921
561.01953	5816
561.27686	5661
561.53424	5822
561.79156	5774
562.04889	5714
562.30621	5740
562.56354	5821
562.82086	5752
563.07819	5744
563.33551	5738
563.59277	5700
563.8501	5650
564.10742	5766
564.36469	5615
564.62201	5777
564.87927	5641
565.13654	5713
565.39386	5702
565.65112	5807
565.90839	5731
566.16565	5743
566.42291	5836
566.68018	5631
566.93744	5640
567.19464	5576
567.4519	5603
567.70917	5481
567.96637	5647
568.22363	5652
568.48083	5600
568.7381	5490
568.9953	5556
569.2525	5803
569.5097	5567
569.76691	5504
570.02411	5443
570.28131	5523
570.53851	5558
570.79572	5494
571.05292	5519
571.31006	5440
571.56726	5403
571.8244	5375
572.0816	5335
572.33875	5414
572.59589	5409
572.85309	5319
573.11023	5276
573.36737	5257
573.62451	5494
573.88165	5345
574.13879	5250
574.39587	5325
574.65302	5405
574.91016	5372
575.16724	5197
575.42438	5200
575.68146	5254
575.9386	5252
576.19568	5121
576.45276	5269
576.70984	5175
576.96692	5137
577.224	5235
577.48108	5182
577.73816	5115
577.99524	5201
578.25232	5137
578.50934	5066
578.76642	5035
579.02344	5163
579.28052	5144
579.53754	5055
579.79462	5082
580.05164	5024
580.30865	5139
580.56567	5080
580.82269	5051
581.07971	5020
581.33673	4881
581.59369	4913
581.85071	4937
582.10773	4912
582.36469	4750
582.6217	4809
582.87866	4990
583.13562	4824
583.39264	4798
583.6496	4891
583.90656	4833
584.16351	4804
584.42047	4894
584.67743	4797
584.93439	4849
585.19128	4918
585.44824	4771
585.70514	4633
585.9621	4799
586.21899	4887
586.47595	4651
586.73285	4712
586.98975	4600
587.24664	4639
587.50354	4747
587.76044	4633
588.01733	4716
588.27423	4611
588.53113	4569
588.78796	4717
589.04486	4550
589.3017	4633
589.55859	4600
589.81543	4475
590.07233	4613
590.32916	4604
590.586	4594
590.84283	4475
591.09967	4614
591.35651	4434
591.61334	4565
591.87012	4452
592.12695	4553
592.38373	4380
592.64056	4385
592.89734	4433
593.15417	4344
593.41095	4302
593.66772	4484
593.9245	4324
594.18127	4323
594.43805	4384
594.69482	4276
594.9516	4214
595.20837	4244
595.46509	4263
595.72186	4348
595.97858	4214
596.23535	4168
596.49207	4147
596.74878	4169
597.00555	4134
597.26227	3965
597.51898	4097
597.7757	4190
598.03235	4171
598.28906	4305
598.54578	4049
598.80243	4117
599.05914	4103
599.3158	4033
599.57251	3854
599.82916	3997
600.08582	4088
600.34247	4021
600.59918	3873
600.85583	3843
601.11243	3914
601.36908	4028
601.62573	3847
601.88239	3899
602.13898	3775
602.39563	3841
602.65222	3955
602.90881	3915
603.16547	3824
603.42206	3897
603.67865	3718
603.93524	3928
604.19183	3945
604.44843	3808
604.70496	3720
604.96155	3880
605.21814	3761
605.47467	3800
605.73126	3788
605.98779	3751
606.24432	3748
606.50085	3625
606.75739	3771
607.01392	3706
607.27045	3700
607.52698	3625
607.78351	3540
608.04004	3575
608.29651	3535
608.55304	3508
608.80951	3738
609.06604	3478
609.32251	3464
609.57898	3587
609.83545	3583
610.09192	3614
610.34839	3593
610.60486	3547
610.86133	3408
611.11774	3483
611.37421	3466
611.63062	3374
611.88708	3520
612.14349	3376
612.39996	3409
612.65637	3367
612.91278	3371
613.16919	3425
613.4256	3485
613.68201	3311
613.93835	3321
614.19476	3333
614.45117	3383
614.70752	3366
614.96387	3410
615.22028	3270
615.47662	3333
615.73297	3274
615.98932	3274
616.24567	3283
616.50201	3255
616.75836	3195
617.01471	3376
617.271	3284
617.52734	3244
617.78363	3187
618.03998	3239
618.29626	3233
618.55255	3259
618.80884	3183
619.06512	3196
619.32141	3168
619.5777	3105
619.83398	3081
620.09027	3195
620.3465	3070
620.60278	3175
620.85901	3161
621.1153	3039
621.37152	3058
621.62775	3173
621.88397	3025
622.1402	3100
622.39642	2982
622.65265	3110
622.90887	3002
623.16504	3025
623.42126	3111
623.67743	2958
623.93365	2996
624.18982	2870
624.44598	3018
624.70215	2980
624.95831	3099
625.21448	3012
625.47064	2958
625.72681	2907
625.98291	3044
626.23907	2896
626.49524	2806
626.75134	2832
627.00745	2833
627.26355	2795
627.51971	2800
627.77582	2853
628.03192	2755
628.28796	2823
628.54407	2837
628.80017	2818
629.05627	2744
629.31232	2839
629.56836	2770
629.82446	2795
630.08051	2794
630.33655	2802
630.59259	2742
630.84863	2815
631.10468	2771
631.36072	2669
631.6167	2716
631.87274	2757
632.12878	2646
632.38477	2710
632.64075	2613
632.89679	2723
633.15277	2565
633.40875	2704
633.66473	2629
633.92072	2647
634.17664	2545
634.43262	2597
634.6886	2595
634.94452	2522
635.2005	2626
635.45642	2506
635.71234	2538
635.96826	2548
636.22418	2502
636.4801	2569
636.73602	2513
636.99194	2482
637.24786	2490
637.50372	2517
637.75964	2383
638.0155	2467
638.27136	2357
638.52722	2488
638.78314	2463
639.039	2367
639.29486	2490
639.55066	2399
639.80652	2404
640.06238	2324
640.31818	2397
640.57404	2433
640.82983	2296
641.08563	2392
641.34149	2296
641.59729	2359
641.85309	2301
642.10889	2316
642.36462	2327
642.62042	2260
642.87622	2320
643.13196	2351
643.38776	2288
643.64349	2192
643.89923	2204
644.15497	2278
644.41071	2238
644.66644	2194
644.92218	2197
645.17792	2200
645.43359	2237
645.68933	2181
645.94507	2240
646.20074	2185
646.45642	2178
646.7121	2044
646.96777	2063
647.22345	2168
647.47913	2067
647.7348	2054
647.99048	2051
648.24609	2048
648.50177	2039
648.75739	2099
649.01306	2034
649.26868	1963
649.52429	2022
649.77991	2051
650.03552	2041
650.29114	2038
650.54669	1986
650.80231	1986
651.05792	1982
651.31348	2011
651.56903	1983
651.82465	2033
652.0802	2040
652.33575	1984
652.59131	1881
652.84686	1929
653.10236	1913
653.35791	1903
653.61346	1865
653.86896	1925
654.12445	1896
654.38	1945
654.6355	1858
654.89099	1817
655.14648	1888
655.40198	1807
655.65741	1793
655.9129	1827
656.1684	1809
656.42383	1773
656.67926	1852
656.93475	1835
657.19019	1922
657.44562	1789
657.70105	1809
657.95648	1809
658.21191	1752
658.46729	1755
658.72272	1728
658.97809	1797
659.23352	1728
659.48889	1684
659.74426	1822
659.99963	1663
660.255	1725
660.51038	1635
660.76575	1733
661.02106	1745
661.27643	1649
661.53174	1726
661.78711	1626
662.04242	1651
662.29773	1657
662.55304	1710
662.80835	1686
663.06366	1646
663.31897	1646
663.57428	1601
663.82953	1689
664.08484	1627
664.34009	1588
664.59534	1535
664.85059	1597
665.10583	1608
665.36108	1597
665.61633	1620
665.87158	1614
666.12677	1522
666.38202	1531
666.63721	1551
666.89246	1621
667.14764	1488
667.40283	1575
667.65802	1547
667.91321	1477
668.1684	1502
668.42358	1520
668.67871	1427
668.9339	1448
669.18903	1451
669.44415	1483
669.69934	1490
669.95447	1422
670.20959	1496
670.46466	1494
670.71979	1447
670.97491	1430
671.22998	1357
671.48511	1443
671.74017	1417
671.9953	1383
672.25037	1494
672.50543	1379
672.7605	1456
673.0155	1377
673.27057	1322
673.52563	1466
673.78064	1358
674.03571	1438
674.29071	1409
674.54572	1383
674.80072	1402
675.05573	1337
675.31073	1311
675.56573	1332
675.82074	1333
676.07568	1339
676.33069	1339
676.58563	1359
676.84058	1281
677.09552	1290
677.35046	1358
677.60541	1344
677.86035	1336
678.1153	1275
678.37024	1288
678.62512	1245
678.88	1240
679.13495	1249
679.38983	1312
679.64471	1279
679.8996	1325
680.15448	1250
680.40936	1299
680.66418	1272
680.91907	1248
681.17389	1288
681.42871	1222
681.68359	1304
681.93842	1226
682.19324	1285
682.44806	1236
682.70282	1225
682.95764	1235
683.21246	1207
683.46722	1235
683.72205	1275
683.97681	1185
684.23157	1275
684.48633	1163
684.74109	1185
684.99585	1246
685.25055	1159
685.50531	1146
685.76001	1222
686.01477	1180
686.26947	1198
686.52417	1169
686.77887	1141
687.03357	1205
687.28827	1191
687.54297	1110
687.79761	1140
688.05231	1127
688.30695	1177
688.56158	1125
688.81628	1086
689.07092	1087
689.32556	1096
689.58014	1067
689.83478	1105
690.08942	1095
690.34399	1117
690.59863	1077
690.85321	1062
691.10779	1074
691.36237	1056
691.61694	1110
691.87152	1066
692.1261	1075
692.38062	1047
692.63519	1099
692.88971	1018
693.14423	1041
693.39874	1060
693.65326	1060
693.90778	1048
694.16229	1018
694.41681	1031
694.67133	1048
694.92578	989
695.18024	1015
695.43475	960
695.68921	985
695.94366	1011
696.19812	1031
696.45258	988
696.70697	1024
696.96143	982
697.21582	994
697.47028	998
697.72467	999
697.97906	984
698.23346	983
698.48785	943
698.74225	893
698.99658	985
699.25098	956
699.50531	971
699.7597	971
700.01404	923
700.26837	944
700.52271	934
700.77704	877
701.03137	941
701.28564	893
701.53998	932
701.79425	970
702.04858	870
702.30286	957
702.55713	889
702.8114	865
703.06567	898
703.31989	943
703.57416	940
703.82843	909
704.08264	874
704.33685	868
704.59106	874
704.84528	889
705.09949	900
705.3537	858
705.60791	922
705.86206	897
706.11627	842
706.37042	874
706.62457	878
706.87878	827
707.13293	812
707.38702	862
707.64117	846
707.89532	891
708.14941	844
708.40356	855
708.65765	831
708.91174	834
709.16583	826
709.41992	833
709.67401	833
709.9281	802
710.18213	832
710.43622	830
710.69025	764
710.94427	789
711.19836	770
711.45239	784
711.70636	790
711.96039	826
712.21442	847
712.46838	834
712.72241	794
712.97638	772
713.23035	796
713.48431	777
713.73828	769
713.99225	725
714.24622	766
714.50012	786
714.75409	775
715.008	768
715.2619	743
715.51581	739
715.76971	736
716.02362	754
716.27753	760
716.53143	752
716.78528	717
717.03912	785
717.29303	784
717.54688	702
717.80072	785
718.05457	705
718.30841	727
718.56219	736
718.81604	701
719.06982	749
719.32361	693
719.57745	691
719.83124	733
720.08502	725
720.33875	715
720.59253	734
720.84631	736
721.10004	693
721.35376	693
721.60754	713
721.86127	694
722.11499	684
722.36871	690
722.62238	711
722.8761	647
723.12976	709
723.38348	706
723.63715	703
723.89081	698
724.14447	682
724.39813	682
724.65179	715
724.9054	713
725.15906	701
725.41266	678
725.66626	644
725.91992	657
726.17352	679
726.42706	684
726.68066	678
726.93427	670
727.18781	655
727.44141	625
727.69495	672
727.94849	649
728.20203	652
728.45557	654
728.70911	639
728.96259	725
729.21613	676
729.4696	665
729.72314	692
729.97662	631
730.2301	631
730.48358	645
730.73706	657
730.99048	655
731.24396	614
731.49738	698
731.75079	604
732.00427	638
732.25769	592
732.51105	633
732.76447	641
733.01788	632
733.27124	625
733.52466	591
733.77802	609
734.03137	653
734.28473	609
734.53809	620
734.79144	626
735.0448	613
735.2981	590
735.55145	584
735.80475	610
736.05804	594
736.31134	585
736.56464	610
736.81793	625
737.07117	606
737.32446	626
737.5777	561
737.83093	584
738.08423	568
738.33746	584
738.59064	583
738.84387	585
739.09711	577
739.35028	580
739.60352	542
739.85669	564
740.10986	518
740.36304	593
740.61621	565
740.86938	549
741.1225	582
741.37567	565
741.62878	543
741.8819	558
742.13501	575
742.38812	525
742.64124	542
742.89435	555
743.1474	583
743.40051	556
743.65356	582
743.90662	573
744.15967	534
744.41272	572
744.66577	530
744.91882	534
745.17181	531
745.42487	553
745.67786	534
745.93085	533
746.18384	535
746.43683	566
746.68982	523
746.94275	524
747.19574	533
747.44867	516
747.7016	512
747.95453	530
748.20746	517
748.46039	531
748.71332	524
748.96625	561
749.21912	507
749.47198	538
749.72491	475
749.97778	513
750.23059	510
750.48346	514
750.73633	506
750.98914	552
751.242	509
751.49481	516
751.74762	513
752.00043	537
752.25323	489
752.50604	524
752.75879	485
753.0116	514
753.26434	524
753.51715	512
753.7699	513
754.02264	506
754.27533	474
754.52808	474
754.78082	495
755.03351	519
755.28619	483
755.53888	507
755.79156	473
756.04425	491
756.29694	491
756.54962	512
756.80225	498
757.05493	454
757.30756	474
757.56018	477
757.81281	453
758.06543	515
758.31799	475
758.57062	506
758.82318	466
759.07581	463
759.32837	468
759.58093	451
759.8335	453
760.086	493
760.33856	468
760.59106	472
760.84363	484
761.09613	463
761.34863	489
761.60114	445
761.85364	444
762.10608	472
762.35858	486
762.61102	485
762.86346	468
763.11597	459
763.36841	455
763.62079	458
763.87323	477
764.12567	453
764.37805	493
764.63043	449
764.88287	425
765.13525	443
765.38763	432
765.63995	434
765.89233	458
766.14465	458
766.39703	432
766.64935	467
766.90167	464
767.15399	438
767.40631	443
767.65857	467
767.91089	429
768.16315	458
768.41547	457
768.66772	433
768.91998	430
769.17218	436
769.42444	461
769.6767	463
769.92889	427
770.18109	433
770.43335	443
770.68555	443
770.93768	408
771.18988	451
771.44208	437
771.69421	408
771.94641	422
772.19855	434
772.45068	440
772.70282	422
772.9549	442
773.20703	437
773.45911	445
773.71124	399
773.96332	414
774.21539	400
774.46747	418
774.71954	402
774.97156	403
775.22363	428
775.47565	472
775.72772	421
775.97974	412
776.23175	441
776.4837	423
776.73572	410
776.98773	410
777.23969	430
777.49164	412
777.74359	380
777.99554	379
778.2475	388
778.49945	394
778.75134	415
779.0033	422
779.25519	415
779.50708	388
779.75897	421
780.01086	412
780.2627	396
780.51459	403
780.76642	410
781.01831	392
781.27014	400
781.52197	403
781.7738	395
782.02557	381
782.2774	388
782.52917	394
782.78101	407
783.03278	414
783.28455	407
783.53625	392
783.78802	410
784.03979	420
784.2915	410
784.54321	403
784.79498	394
785.04669	385
785.29834	414
785.55005	395
785.80176	379
786.05341	388
786.30505	379
786.5567	356
786.80835	373
787.06	382
787.31165	360
787.56323	373
787.81488	383
788.06647	429
788.31805	389
788.56964	376
788.82123	373
789.07281	365
789.32434	364
789.57593	379
789.82745	376
790.07898	374
790.33051	367
790.58203	384
790.8335	371
791.08502	385
791.33649	398
791.58795	375
791.83948	370
792.09088	384
792.34235	373
792.59381	374
792.84521	368
793.09668	361
793.34808	381
793.59949	398
793.85089	377
794.10229	356
794.35364	361
794.60504	368
794.85638	362
795.10773	385
795.35907	358
795.61041	368
795.86176	392
796.1131	380
796.36438	344
796.61566	362
796.86694	379
797.11823	380
797.36951	371
797.62079	359
797.87207	391
798.12329	384
798.37451	367
798.62573	366
798.87695	373
799.12817	357
799.37939	354
799.63055	372
799.88177	358
800.13293	354
800.38409	348
800.63525	363
800.88641	371
801.13751	355
801.38867	356
801.63977	373
801.89087	346
802.14197	350
802.39307	382
802.64417	393
802.89526	355
803.1463	338
803.39734	384
803.64844	365
803.89948	347
804.15045	379
804.40149	353
804.65253	344
804.9035	345
805.15448	329
805.40546	361
805.65643	345
805.90741	349
806.15839	337
806.4093	358
806.66028	344
806.91119	354
807.16211	367
807.41302	346
807.66388	339
807.91479	372
808.16565	335
808.41656	346
808.66742	336
808.91827	355
809.16913	345
809.41992	331
809.67078	352
809.92157	352
810.17236	357
810.42316	339
810.67395	337
810.92474	343
811.17554	381
811.42627	374
811.67706	348
811.9278	340
812.17853	331
812.42926	341
812.67993	370
812.93066	364
813.18134	328
813.43201	347
813.68268	359
813.93335	366
814.18402	357
814.43469	338
814.6853	359
814.93597	317
815.18658	346
815.43719	346
815.68781	332
815.93835	354
816.18896	332
816.43951	340
816.69012	329
816.94067	340
817.19122	338
817.44171	332
817.69226	334
817.94275	355
818.1933	343
818.44379	317
818.69427	341
818.94476	344
819.19519	352
819.44568	344
819.69611	348
819.94659	329
820.19702	347
820.44745	345
820.69781	312
820.94824	340
821.19861	353
821.44904	332
821.6994	371
821.94977	346
822.20013	352
822.45044	352
822.70081	348
822.95111	334
823.20142	350
823.45172	332
823.70203	356
823.95233	341
824.20264	326
824.45288	355
824.70313	342
824.95337	349
825.20361	328
825.45386	344
825.7041	356
825.95428	334
826.20453	347
826.45471	333
826.7049	338
826.95508	351
827.2052	331
827.45538	355
827.70551	349
827.95563	326
828.20575	320
828.45587	350
828.70599	338
828.95612	327
829.20618	329
829.45624	336
829.7063	322
829.95636	333
830.20642	342
830.45648	351
830.70648	333
830.95654	344
831.20654	344
831.45654	330
831.70654	362
831.95648	343
832.20648	349
832.45642	336
832.70636	330
832.9563	310
833.20624	345
833.45618	359
833.70612	346
833.95599	320
834.20587	331
834.45575	346
834.70563	320
834.95551	343
835.20532	332
835.4552	345
835.70502	330
835.95483	327
836.20465	333
836.45447	333
836.70428	334
836.95404	304
837.2038	340
837.45361	352
837.70337	327
837.95306	326
838.20282	318
838.45258	339
838.70227	325
838.95197	324
839.20166	338
839.45135	338
839.70105	344
839.95068	352
840.20032	325
840.45001	324
840.69965	329
840.94928	335
841.19885	312
841.44849	328
841.69806	305
841.94763	332
842.19727	325
842.44678	334
842.69635	329
842.94592	315
843.19543	342
843.44495	338
843.69446	324
843.94397	346
844.19348	334
844.44299	344
844.69244	332
844.94189	310
845.19141	326
845.4408	329
845.69025	334
845.9397	340
846.18909	317
846.43854	309
846.68793	318
846.93732	336
847.18665	352
847.43604	312
847.68536	350
847.93475	328
848.18408	321
848.43341	324
848.68274	323
848.93201	317
849.18134	339
849.4306	299
849.67987	331
849.92914	329
850.17841	322
850.42767	340
850.67688	312
850.92609	337
851.17529	321
851.4245	322
851.67371	330
851.92291	337
852.17206	314
852.42126	339
852.67041	315
852.91956	336
853.1687	330
853.41779	326
853.66693	315
853.91602	322
854.1651	319
854.41418	316
854.66327	332
854.91229	312
855.16138	340
855.4104	338
855.65942	341
