Date and Time:                Tue Apr 16 16:14:20.757 2024
Software Version:             4.30.30000.0
Temperature (C):              -90
Model:                        DU971P_UVB
Data Type:                    Counts
Acquisition Mode:             Single Scan
Trigger Mode:                 Internal
Exposure Time (secs):         0.5
Readout Mode:                 Full Vertical Binning
Horizontal binning:           1
Extended Dynamic Range:       off
Horizontally flipped:         false
Vertical Shift Speed (usecs): 9.68
Pixel Readout Rate (MHz):     3
Baseline Clamp:               ON
Clock Amplitude:              Normal
Output Amplifier:             Conventional
Serial Number:                20367
Pre-Amplifier Gain:           4x
Spurious Noise Filter Mode:   No Filter
Photon counted:               false
Data Averaging Filter Mode:   No Filter
SR193i:
Serial Number:                SR-2646
Wavelength (nm):              660
Grating Groove Density (l/mm):300
Grating Blaze:                500nm
Input Side Slit Width (um):   1000



447.98325	9431
448.24188	10063
448.50052	9928
448.75912	10140
449.01776	10295
449.2764	10344
449.535	10494
449.79364	10515
450.05225	10412
450.31085	10578
450.56949	10788
450.82809	10414
451.0867	10422
451.34531	10351
451.60391	10204
451.86252	10067
452.12112	9947
452.37973	9864
452.63834	9857
452.89691	9566
453.15552	9493
453.41412	9577
453.6727	9480
453.9313	9372
454.18988	9245
454.44846	9254
454.70706	9009
454.96564	9045
455.22421	9044
455.48279	8976
455.74136	8949
455.99994	8975
456.25851	9039
456.51709	8745
456.77567	9017
457.03424	9091
457.29279	8956
457.55136	8992
457.80991	9017
458.06848	8801
458.32703	8640
458.5856	8764
458.84415	8564
459.10269	8770
459.36124	8835
459.61978	8830
459.87833	8842
460.13687	8650
460.39542	8747
460.65396	8892
460.91251	8861
461.17102	8866
461.42957	9043
461.68811	9116
461.94662	9025
462.20514	8902
462.46368	8965
462.7222	9120
462.98071	9187
463.23923	9339
463.49777	9286
463.75629	9307
464.01477	9326
464.27328	9546
464.5318	9562
464.79031	9550
465.0488	9650
465.30731	9917
465.56583	9783
465.82431	9924
466.08279	10101
466.34131	10066
466.59979	10383
466.85828	10267
467.11676	10715
467.37524	10608
467.63373	10273
467.89221	10760
468.1507	10687
468.40918	10990
468.66763	11025
468.92612	11009
469.18457	11147
469.44305	11339
469.70151	11374
469.95999	11609
470.21844	11695
470.4769	11911
470.73535	11647
470.9938	11878
471.25226	12045
471.51071	11926
471.76917	12311
472.02759	12579
472.28604	12540
472.54449	12537
472.80292	12757
473.06137	12912
473.31979	12922
473.57822	13088
473.83664	13195
474.09506	13432
474.35352	13427
474.61191	13286
474.87033	13595
475.12875	13776
475.38718	13854
475.6456	13813
475.90399	13835
476.16241	13909
476.42081	13917
476.6792	13972
476.93762	14090
477.19601	14332
477.45441	14297
477.7128	14524
477.97119	14527
478.22958	14361
478.48798	14701
478.74637	14674
479.00473	14669
479.26312	14914
479.52148	14784
479.77988	14983
480.03824	15075
480.2966	14996
480.55496	15304
480.81335	14994
481.07172	14917
481.33005	14880
481.58841	15150
481.84677	15324
482.10513	15395
482.36346	15198
482.62183	15097
482.88016	15057
483.13852	15516
483.39685	15273
483.65518	15237
483.91351	15590
484.17184	15435
484.43018	15619
484.68851	15540
484.94684	15716
485.20517	15500
485.46347	15534
485.7218	15516
485.9801	15802
486.23843	15220
486.49673	15341
486.75504	15659
487.01334	15559
487.27164	15732
487.52994	15888
487.78824	15788
488.04654	15596
488.30484	15857
488.56311	15654
488.82141	15731
489.07968	15598
489.33798	15884
489.59625	15683
489.85452	15987
490.11279	15723
490.37106	15859
490.62933	15995
490.8876	15816
491.14587	15731
491.40411	15628
491.66238	15896
491.92065	15833
492.17889	15633
492.43713	16005
492.69537	15924
492.95364	15882
493.21188	15909
493.47012	15853
493.72833	15932
493.98657	15780
494.24481	15836
494.50305	16020
494.76126	15966
495.0195	15892
495.27771	15819
495.53592	16039
495.79413	15712
496.05234	15800
496.31055	15832
496.56876	15794
496.82697	15931
497.08517	16163
497.34335	16099
497.60156	15783
497.85974	16251
498.11795	15982
498.37613	16219
498.63431	16088
498.89249	15741
499.15067	16023
499.40884	16024
499.66702	16029
499.92517	16491
500.18335	15801
500.44153	16029
500.69968	15848
500.95782	15843
501.216	15949
501.47415	15964
501.7323	16069
501.99045	16255
502.24857	16150
502.50671	16205
502.76486	16196
503.02298	15997
503.28113	16048
503.53925	15934
503.79739	16279
504.05551	15993
504.31363	16057
504.57175	15951
504.82986	16028
505.08798	16141
505.34607	15676
505.60419	15955
505.86227	16077
506.12039	15895
506.37848	16199
506.63657	16260
506.89465	16070
507.15277	15916
507.41083	16136
507.66891	15847
507.927	15922
508.18509	16108
508.44315	15939
508.70123	15924
508.95929	15899
509.21735	15746
509.4754	15985
509.73346	15869
509.99152	16049
510.24957	16004
510.50763	15964
510.76569	16055
511.02371	15773
511.28174	15822
511.53979	15781
511.79782	15825
512.05585	15943
512.3139	15914
512.5719	15894
512.82996	15790
513.08795	15606
513.34595	15778
513.60394	15373
513.862	15726
514.12	15798
514.37799	15860
514.63599	15635
514.89398	15570
515.15198	15469
515.40997	15624
515.66797	15539
515.92596	15627
516.1839	15615
516.44189	15528
516.69989	15457
516.95782	15436
517.21582	15740
517.47375	15497
517.73175	15554
517.98969	15584
518.24762	15585
518.50562	15229
518.76355	15488
519.02148	15231
519.27942	15350
519.53735	15254
519.79529	15404
520.05322	15268
520.31116	15298
520.56909	15572
520.82703	15379
521.0849	15112
521.34283	15267
521.60077	14975
521.85864	14924
522.11658	14979
522.37445	14960
522.63239	15048
522.89026	14938
523.14819	14844
523.40607	14913
523.66394	14838
523.92181	14775
524.17969	14696
524.43756	14645
524.69543	14917
524.95331	14748
525.21118	14345
525.46906	14832
525.72693	14621
525.98474	14596
526.24261	14453
526.50049	14390
526.7583	14402
527.01617	14422
527.27399	14496
527.5318	14401
527.78967	14374
528.04749	14266
528.3053	14603
528.56311	14376
528.82098	14183
529.0788	14316
529.33661	14391
529.59442	14310
529.85217	14154
530.10999	14113
530.3678	14364
530.62561	14004
530.88336	14104
531.14117	14035
531.39893	14186
531.65674	13914
531.91449	13967
532.1723	13847
532.43005	13947
532.68781	13998
532.94556	13655
533.20337	13702
533.46112	13617
533.71887	13750
533.97662	13552
534.23438	13477
534.49207	13656
534.74982	13588
535.00757	13494
535.26532	13680
535.52301	13389
535.78076	13546
536.03845	13557
536.2962	13436
536.55389	13275
536.81158	13307
537.06934	13314
537.32703	13004
537.58472	13156
537.84241	13140
538.1001	13191
538.35779	13003
538.61548	12870
538.87317	13217
539.13086	13135
539.38849	13158
539.64618	12792
539.90387	13084
540.1615	12825
540.41919	12736
540.67682	12679
540.93445	12856
541.19214	12883
541.44977	12672
541.7074	12631
541.96503	12363
542.22266	12533
542.48029	12492
542.73792	12637
542.99554	12583
543.25317	12444
543.5108	12427
543.76837	12323
544.026	12408
544.28363	12390
544.5412	12309
544.79883	12327
545.0564	12215
545.31396	12091
545.57153	12212
545.82916	12268
546.08673	12101
546.3443	11949
546.60187	12212
546.85944	12070
547.117	12098
547.37457	11992
547.63208	12082
547.88965	11897
548.14722	11907
548.40472	12054
548.66229	11768
548.9198	12007
549.17737	11786
549.43488	11637
549.69238	11720
549.94989	11428
550.20746	11685
550.46497	11705
550.72247	11707
550.97998	11406
551.23749	11437
551.49493	11701
551.75244	11485
552.00995	11668
552.2674	11300
552.5249	11235
552.78235	11102
553.03986	11258
553.2973	11257
553.55481	11222
553.81226	11078
554.0697	11163
554.32715	11321
554.58459	10982
554.84204	11160
555.09949	11110
555.35693	10937
555.61438	11020
555.87177	11152
556.12921	10828
556.38666	10970
556.64404	10881
556.90149	10834
557.15887	10686
557.41626	10777
557.67371	10729
557.93109	10615
558.18848	10501
558.44586	10607
558.70325	10773
558.96063	10544
559.21802	10792
559.4754	10678
559.73273	10427
559.99011	10380
560.2475	10585
560.50482	10403
560.76221	10529
561.01953	10415
561.27686	10294
561.53424	10206
561.79156	10303
562.04889	10422
562.30621	10167
562.56354	10368
562.82086	10260
563.07819	10033
563.33551	9969
563.59277	10248
563.8501	10186
564.10742	9884
564.36469	9935
564.62201	9981
564.87927	9806
565.13654	9758
565.39386	9891
565.65112	9751
565.90839	9672
566.16565	9837
566.42291	9858
566.68018	9831
566.93744	9653
567.19464	9737
567.4519	9539
567.70917	9557
567.96637	9518
568.22363	9634
568.48083	9446
568.7381	9411
568.9953	9408
569.2525	9530
569.5097	9247
569.76691	9490
570.02411	9256
570.28131	9328
570.53851	9337
570.79572	9041
571.05292	9193
571.31006	9151
571.56726	9000
571.8244	9133
572.0816	8947
572.33875	8996
572.59589	9039
572.85309	8870
573.11023	8909
573.36737	8878
573.62451	8932
573.88165	8685
574.13879	8885
574.39587	8761
574.65302	8576
574.91016	8703
575.16724	8931
575.42438	8784
575.68146	8607
575.9386	8896
576.19568	8757
576.45276	8549
576.70984	8655
576.96692	8677
577.224	8638
577.48108	8328
577.73816	8558
577.99524	8411
578.25232	8399
578.50934	8419
578.76642	8139
579.02344	8360
579.28052	8464
579.53754	8285
579.79462	8234
580.05164	8149
580.30865	8415
580.56567	7995
580.82269	8014
581.07971	8324
581.33673	8038
581.59369	8410
581.85071	8057
582.10773	8007
582.36469	7999
582.6217	7961
582.87866	7872
583.13562	7899
583.39264	7787
583.6496	7888
583.90656	7918
584.16351	7897
584.42047	7909
584.67743	7663
584.93439	7951
585.19128	7900
585.44824	7597
585.70514	7652
585.9621	7663
586.21899	7721
586.47595	7537
586.73285	7467
586.98975	7592
587.24664	7595
587.50354	7516
587.76044	7481
588.01733	7537
588.27423	7556
588.53113	7550
588.78796	7439
589.04486	7406
589.3017	7408
589.55859	7215
589.81543	7153
590.07233	7221
590.32916	7228
590.586	7182
590.84283	7195
591.09967	7216
591.35651	7205
591.61334	7296
591.87012	6989
592.12695	7065
592.38373	6940
592.64056	6994
592.89734	6996
593.15417	7081
593.41095	6896
593.66772	6906
593.9245	6824
594.18127	6843
594.43805	6997
594.69482	6883
594.9516	6897
595.20837	6799
595.46509	6789
595.72186	6787
595.97858	6676
596.23535	6629
596.49207	6564
596.74878	6696
597.00555	6594
597.26227	6600
597.51898	6558
597.7757	6607
598.03235	6587
598.28906	6453
598.54578	6442
598.80243	6542
599.05914	6365
599.3158	6265
599.57251	6357
599.82916	6271
600.08582	6373
600.34247	6312
600.59918	6182
600.85583	6462
601.11243	6206
601.36908	6255
601.62573	6150
601.88239	6168
602.13898	6049
602.39563	5995
602.65222	6082
602.90881	6091
603.16547	6113
603.42206	5911
603.67865	5944
603.93524	5988
604.19183	5714
604.44843	5742
604.70496	5906
604.96155	6037
605.21814	5923
605.47467	5839
605.73126	6010
605.98779	5814
606.24432	5839
606.50085	5853
606.75739	5857
607.01392	5693
607.27045	5820
607.52698	5706
607.78351	5629
608.04004	5665
608.29651	5642
608.55304	5517
608.80951	5613
609.06604	5632
609.32251	5600
609.57898	5510
609.83545	5573
610.09192	5440
610.34839	5558
610.60486	5484
610.86133	5541
611.11774	5400
611.37421	5366
611.63062	5415
611.88708	5320
612.14349	5391
612.39996	5280
612.65637	5363
612.91278	5221
613.16919	5304
613.4256	5370
613.68201	5103
613.93835	5311
614.19476	5215
614.45117	5197
614.70752	5245
614.96387	5163
615.22028	5082
615.47662	4986
615.73297	4941
615.98932	4987
616.24567	4947
616.50201	5053
616.75836	5084
617.01471	4923
617.271	4932
617.52734	4933
617.78363	4917
618.03998	4940
618.29626	4981
618.55255	4800
618.80884	4883
619.06512	4797
619.32141	4766
619.5777	4828
619.83398	4795
620.09027	4707
620.3465	4802
620.60278	4798
620.85901	4771
621.1153	4660
621.37152	4680
621.62775	4625
621.88397	4676
622.1402	4613
622.39642	4605
622.65265	4654
622.90887	4637
623.16504	4747
623.42126	4613
623.67743	4661
623.93365	4548
624.18982	4519
624.44598	4582
624.70215	4639
624.95831	4496
625.21448	4385
625.47064	4609
625.72681	4488
625.98291	4363
626.23907	4423
626.49524	4366
626.75134	4361
627.00745	4295
627.26355	4249
627.51971	4273
627.77582	4325
628.03192	4121
628.28796	4255
628.54407	4404
628.80017	4174
629.05627	4295
629.31232	4347
629.56836	4253
629.82446	4244
630.08051	4204
630.33655	4116
630.59259	4185
630.84863	4150
631.10468	4080
631.36072	4133
631.6167	4015
631.87274	4093
632.12878	3990
632.38477	4023
632.64075	3914
632.89679	3992
633.15277	3871
633.40875	4033
633.66473	4011
633.92072	3872
634.17664	3819
634.43262	3954
634.6886	3913
634.94452	3874
635.2005	3836
635.45642	3823
635.71234	3752
635.96826	3766
636.22418	3657
636.4801	3776
636.73602	3693
636.99194	3761
637.24786	3644
637.50372	3731
637.75964	3577
638.0155	3653
638.27136	3625
638.52722	3713
638.78314	3692
639.039	3561
639.29486	3624
639.55066	3562
639.80652	3589
640.06238	3529
640.31818	3610
640.57404	3556
640.82983	3502
641.08563	3467
641.34149	3450
641.59729	3423
641.85309	3552
642.10889	3483
642.36462	3405
642.62042	3350
642.87622	3370
643.13196	3421
643.38776	3351
643.64349	3287
643.89923	3263
644.15497	3282
644.41071	3351
644.66644	3159
644.92218	3240
645.17792	3255
645.43359	3227
645.68933	3225
645.94507	3193
646.20074	3216
646.45642	3131
646.7121	3079
646.96777	3136
647.22345	3088
647.47913	3171
647.7348	3131
647.99048	3003
648.24609	3074
648.50177	3093
648.75739	2934
649.01306	3031
649.26868	3010
649.52429	2996
649.77991	3037
650.03552	2965
650.29114	2845
650.54669	2870
650.80231	2904
651.05792	2899
651.31348	2951
651.56903	2875
651.82465	2900
652.0802	2965
652.33575	2858
652.59131	2840
652.84686	2800
653.10236	2869
653.35791	2837
653.61346	2753
653.86896	2777
654.12445	2844
654.38	2783
654.6355	2796
654.89099	2717
655.14648	2699
655.40198	2706
655.65741	2735
655.9129	2726
656.1684	2779
656.42383	2641
656.67926	2722
656.93475	2697
657.19019	2630
657.44562	2631
657.70105	2529
657.95648	2529
658.21191	2587
658.46729	2490
658.72272	2501
658.97809	2577
659.23352	2507
659.48889	2460
659.74426	2489
659.99963	2528
660.255	2449
660.51038	2441
660.76575	2394
661.02106	2458
661.27643	2420
661.53174	2396
661.78711	2409
662.04242	2367
662.29773	2371
662.55304	2363
662.80835	2383
663.06366	2398
663.31897	2305
663.57428	2253
663.82953	2384
664.08484	2317
664.34009	2303
664.59534	2378
664.85059	2206
665.10583	2345
665.36108	2246
665.61633	2212
665.87158	2325
666.12677	2315
666.38202	2214
666.63721	2203
666.89246	2276
667.14764	2165
667.40283	2229
667.65802	2227
667.91321	2205
668.1684	2209
668.42358	2187
668.67871	2129
668.9339	2119
669.18903	2083
669.44415	2195
669.69934	2206
669.95447	2066
670.20959	2118
670.46466	2122
670.71979	1984
670.97491	2152
671.22998	2093
671.48511	2073
671.74017	2028
671.9953	2033
672.25037	2059
672.50543	2009
672.7605	1941
673.0155	2030
673.27057	2012
673.52563	1979
673.78064	2059
674.03571	1921
674.29071	1953
674.54572	1999
674.80072	1899
675.05573	1971
675.31073	1908
675.56573	1919
675.82074	1918
676.07568	1849
676.33069	1892
676.58563	1874
676.84058	1959
677.09552	1880
677.35046	1798
677.60541	1857
677.86035	1884
678.1153	1888
678.37024	1808
678.62512	1793
678.88	1862
679.13495	1762
679.38983	1878
679.64471	1823
679.8996	1834
680.15448	1844
680.40936	1787
680.66418	1750
680.91907	1737
681.17389	1799
681.42871	1738
681.68359	1661
681.93842	1740
682.19324	1741
682.44806	1738
682.70282	1775
682.95764	1598
683.21246	1786
683.46722	1662
683.72205	1681
683.97681	1692
684.23157	1648
684.48633	1677
684.74109	1646
684.99585	1682
685.25055	1696
685.50531	1657
685.76001	1559
686.01477	1624
686.26947	1615
686.52417	1564
686.77887	1672
687.03357	1630
687.28827	1577
687.54297	1599
687.79761	1603
688.05231	1586
688.30695	1606
688.56158	1639
688.81628	1566
689.07092	1595
689.32556	1551
689.58014	1554
689.83478	1488
690.08942	1618
690.34399	1555
690.59863	1506
690.85321	1510
691.10779	1482
691.36237	1480
691.61694	1444
691.87152	1506
692.1261	1450
692.38062	1436
692.63519	1390
692.88971	1488
693.14423	1483
693.39874	1443
693.65326	1439
693.90778	1373
694.16229	1425
694.41681	1341
694.67133	1457
694.92578	1463
695.18024	1443
695.43475	1360
695.68921	1427
695.94366	1357
696.19812	1405
696.45258	1389
696.70697	1375
696.96143	1469
697.21582	1414
697.47028	1318
697.72467	1375
697.97906	1286
698.23346	1348
698.48785	1376
698.74225	1290
698.99658	1286
699.25098	1342
699.50531	1300
699.7597	1296
700.01404	1279
700.26837	1259
700.52271	1282
700.77704	1301
701.03137	1299
701.28564	1261
701.53998	1223
701.79425	1251
702.04858	1213
702.30286	1237
702.55713	1235
702.8114	1173
703.06567	1238
703.31989	1224
703.57416	1220
703.82843	1251
704.08264	1178
704.33685	1246
704.59106	1153
704.84528	1236
705.09949	1234
705.3537	1161
705.60791	1169
705.86206	1206
706.11627	1204
706.37042	1162
706.62457	1125
706.87878	1162
707.13293	1195
707.38702	1207
707.64117	1138
707.89532	1137
708.14941	1174
708.40356	1102
708.65765	1100
708.91174	1071
709.16583	1130
709.41992	1058
709.67401	1080
709.9281	1072
710.18213	1094
710.43622	1097
710.69025	1082
710.94427	1045
711.19836	1040
711.45239	1100
711.70636	1054
711.96039	1018
712.21442	1055
712.46838	1049
712.72241	1050
712.97638	1059
713.23035	972
713.48431	1046
713.73828	1006
713.99225	1063
714.24622	975
714.50012	970
714.75409	973
715.008	972
715.2619	1067
715.51581	986
715.76971	998
716.02362	942
716.27753	974
716.53143	964
716.78528	1014
717.03912	947
717.29303	922
717.54688	963
717.80072	959
718.05457	902
718.30841	959
718.56219	919
718.81604	986
719.06982	947
719.32361	932
719.57745	959
719.83124	948
720.08502	924
720.33875	928
720.59253	937
720.84631	944
721.10004	971
721.35376	947
721.60754	919
721.86127	939
722.11499	911
722.36871	889
722.62238	981
722.8761	897
723.12976	912
723.38348	948
723.63715	933
723.89081	926
724.14447	879
724.39813	918
724.65179	900
724.9054	908
725.15906	887
725.41266	928
725.66626	916
725.91992	880
726.17352	871
726.42706	895
726.68066	856
726.93427	875
727.18781	866
727.44141	864
727.69495	794
727.94849	880
728.20203	868
728.45557	833
728.70911	802
728.96259	840
729.21613	830
729.4696	831
729.72314	824
729.97662	823
730.2301	809
730.48358	870
730.73706	812
730.99048	876
731.24396	826
731.49738	804
731.75079	824
732.00427	779
732.25769	789
732.51105	793
732.76447	809
733.01788	833
733.27124	796
733.52466	795
733.77802	804
734.03137	769
734.28473	753
734.53809	785
734.79144	791
735.0448	796
735.2981	793
735.55145	758
735.80475	775
736.05804	735
736.31134	743
736.56464	733
736.81793	761
737.07117	737
737.32446	784
737.5777	765
737.83093	773
738.08423	778
738.33746	750
738.59064	743
738.84387	691
739.09711	718
739.35028	724
739.60352	736
739.85669	712
740.10986	744
740.36304	727
740.61621	699
740.86938	721
741.1225	686
741.37567	711
741.62878	684
741.8819	752
742.13501	684
742.38812	695
742.64124	687
742.89435	660
743.1474	686
743.40051	674
743.65356	694
743.90662	682
744.15967	672
744.41272	691
744.66577	690
744.91882	658
745.17181	700
745.42487	655
745.67786	633
745.93085	671
746.18384	634
746.43683	688
746.68982	655
746.94275	672
747.19574	618
747.44867	620
747.7016	660
747.95453	631
748.20746	693
748.46039	644
748.71332	654
748.96625	610
749.21912	631
749.47198	601
749.72491	622
749.97778	607
750.23059	613
750.48346	614
750.73633	619
750.98914	606
751.242	641
751.49481	617
751.74762	629
752.00043	613
752.25323	639
752.50604	599
752.75879	592
753.0116	579
753.26434	615
753.51715	578
753.7699	595
754.02264	596
754.27533	588
754.52808	577
754.78082	535
755.03351	594
755.28619	604
755.53888	548
755.79156	599
756.04425	606
756.29694	603
756.54962	576
756.80225	595
757.05493	604
757.30756	564
757.56018	571
757.81281	556
758.06543	564
758.31799	562
758.57062	586
758.82318	576
759.07581	559
759.32837	553
759.58093	552
759.8335	602
760.086	538
760.33856	607
760.59106	575
760.84363	568
761.09613	587
761.34863	569
761.60114	555
761.85364	573
762.10608	533
762.35858	529
762.61102	590
762.86346	566
763.11597	545
763.36841	533
763.62079	572
763.87323	542
764.12567	547
764.37805	522
764.63043	533
764.88287	552
765.13525	530
765.38763	542
765.63995	480
765.89233	528
766.14465	532
766.39703	487
766.64935	507
766.90167	488
767.15399	515
767.40631	547
767.65857	534
767.91089	512
768.16315	519
768.41547	497
768.66772	537
768.91998	510
769.17218	533
769.42444	498
769.6767	473
769.92889	488
770.18109	502
770.43335	514
770.68555	522
770.93768	527
771.18988	500
771.44208	499
771.69421	500
771.94641	483
772.19855	486
772.45068	517
772.70282	491
772.9549	507
773.20703	473
773.45911	516
773.71124	489
773.96332	480
774.21539	491
774.46747	478
774.71954	479
774.97156	481
775.22363	489
775.47565	479
775.72772	490
775.97974	475
776.23175	454
776.4837	480
776.73572	492
776.98773	469
777.23969	460
777.49164	461
777.74359	479
777.99554	459
778.2475	486
778.49945	463
778.75134	444
779.0033	492
779.25519	473
779.50708	457
779.75897	460
780.01086	453
780.2627	445
780.51459	450
780.76642	490
781.01831	448
781.27014	482
781.52197	479
781.7738	426
782.02557	470
782.2774	440
782.52917	439
782.78101	435
783.03278	433
783.28455	455
783.53625	454
783.78802	419
784.03979	435
784.2915	418
784.54321	419
784.79498	449
785.04669	438
785.29834	462
785.55005	440
785.80176	430
786.05341	446
786.30505	435
786.5567	438
786.80835	447
787.06	473
787.31165	427
787.56323	428
787.81488	463
788.06647	419
788.31805	422
788.56964	424
788.82123	427
789.07281	469
789.32434	437
789.57593	433
789.82745	414
790.07898	415
790.33051	419
790.58203	399
790.8335	432
791.08502	432
791.33649	440
791.58795	411
791.83948	432
792.09088	407
792.34235	418
792.59381	414
792.84521	428
793.09668	433
793.34808	386
793.59949	430
793.85089	414
794.10229	418
794.35364	409
794.60504	409
794.85638	415
795.10773	396
795.35907	405
795.61041	399
795.86176	394
796.1131	424
796.36438	387
796.61566	406
796.86694	419
797.11823	426
797.36951	375
797.62079	387
797.87207	389
798.12329	383
798.37451	393
798.62573	417
798.87695	389
799.12817	397
799.37939	394
799.63055	423
799.88177	389
800.13293	392
800.38409	410
800.63525	402
800.88641	395
801.13751	421
801.38867	359
801.63977	412
801.89087	423
802.14197	423
802.39307	394
802.64417	381
802.89526	399
803.1463	374
803.39734	387
803.64844	372
803.89948	379
804.15045	386
804.40149	381
804.65253	394
804.9035	383
805.15448	408
805.40546	396
805.65643	386
805.90741	395
806.15839	408
806.4093	379
806.66028	395
806.91119	373
807.16211	361
807.41302	384
807.66388	356
807.91479	397
808.16565	395
808.41656	384
808.66742	395
808.91827	392
809.16913	377
809.41992	385
809.67078	397
809.92157	375
810.17236	377
810.42316	393
810.67395	395
810.92474	389
811.17554	384
811.42627	387
811.67706	407
811.9278	375
812.17853	356
812.42926	397
812.67993	358
812.93066	367
813.18134	370
813.43201	356
813.68268	369
813.93335	364
814.18402	394
814.43469	381
814.6853	378
814.93597	396
815.18658	357
815.43719	398
815.68781	376
815.93835	368
816.18896	374
816.43951	393
816.69012	374
816.94067	355
817.19122	369
817.44171	379
817.69226	363
817.94275	334
818.1933	361
818.44379	356
818.69427	358
818.94476	327
819.19519	385
819.44568	359
819.69611	347
819.94659	389
820.19702	369
820.44745	369
820.69781	335
820.94824	373
821.19861	362
821.44904	347
821.6994	368
821.94977	352
822.20013	366
822.45044	364
822.70081	366
822.95111	373
823.20142	373
823.45172	351
823.70203	367
823.95233	344
824.20264	355
824.45288	349
824.70313	359
824.95337	349
825.20361	336
825.45386	371
825.7041	333
825.95428	350
826.20453	349
826.45471	395
826.7049	356
826.95508	362
827.2052	355
827.45538	355
827.70551	354
827.95563	377
828.20575	366
828.45587	357
828.70599	362
828.95612	355
829.20618	365
829.45624	352
829.7063	364
829.95636	365
830.20642	351
830.45648	369
830.70648	342
830.95654	343
831.20654	362
831.45654	358
831.70654	345
831.95648	364
832.20648	328
832.45642	371
832.70636	348
832.9563	352
833.20624	347
833.45618	353
833.70612	367
833.95599	350
834.20587	358
834.45575	363
834.70563	335
834.95551	348
835.20532	352
835.4552	333
835.70502	361
835.95483	373
836.20465	354
836.45447	346
836.70428	343
836.95404	365
837.2038	356
837.45361	364
837.70337	366
837.95306	343
838.20282	347
838.45258	344
838.70227	349
838.95197	340
839.20166	345
839.45135	369
839.70105	338
839.95068	369
840.20032	362
840.45001	337
840.69965	338
840.94928	362
841.19885	336
841.44849	357
841.69806	342
841.94763	344
842.19727	365
842.44678	369
842.69635	358
842.94592	342
843.19543	351
843.44495	341
843.69446	338
843.94397	328
844.19348	318
844.44299	351
844.69244	345
844.94189	319
845.19141	330
845.4408	347
845.69025	359
845.9397	347
846.18909	347
846.43854	329
846.68793	320
846.93732	331
847.18665	328
847.43604	355
847.68536	367
847.93475	357
848.18408	352
848.43341	336
848.68274	354
848.93201	351
849.18134	350
849.4306	338
849.67987	354
849.92914	344
850.17841	351
850.42767	338
850.67688	337
850.92609	358
851.17529	343
851.4245	318
851.67371	344
851.92291	334
852.17206	362
852.42126	331
852.67041	319
852.91956	307
853.1687	359
853.41779	348
853.66693	337
853.91602	343
854.1651	356
854.41418	341
854.66327	358
854.91229	320
855.16138	317
855.4104	355
855.65942	356
