Date and Time:                Sun Apr 14 16:17:49.839 2024
Software Version:             4.30.30000.0
Temperature (C):              -90
Model:                        DU971P_UVB
Data Type:                    Counts
Acquisition Mode:             Single Scan
Trigger Mode:                 Internal
Exposure Time (secs):         1
Readout Mode:                 Full Vertical Binning
Horizontal binning:           1
Extended Dynamic Range:       off
Horizontally flipped:         false
Vertical Shift Speed (usecs): 9.68
Pixel Readout Rate (MHz):     3
Baseline Clamp:               ON
Clock Amplitude:              Normal
Output Amplifier:             Conventional
Serial Number:                20367
Pre-Amplifier Gain:           4x
Spurious Noise Filter Mode:   No Filter
Photon counted:               false
Data Averaging Filter Mode:   No Filter
SR193i:
Serial Number:                SR-2646
Wavelength (nm):              650
Grating Groove Density (l/mm):300
Grating Blaze:                500nm
Input Side Slit Width (um):   1000



437.86981	9689
438.12854	10187
438.3873	10856
438.64606	11421
438.90482	12260
439.16354	12690
439.4223	13411
439.68103	13774
439.93979	14273
440.19852	14974
440.45724	15248
440.716	15963
440.97473	16610
441.23346	16993
441.49219	17515
441.75092	18308
442.00964	18372
442.26837	19301
442.5271	19568
442.78583	19942
443.04456	20546
443.30325	20976
443.56198	21677
443.82068	22353
444.07941	22634
444.3381	23125
444.59683	23254
444.85553	23851
445.11423	24497
445.37292	24860
445.63165	25329
445.89035	25502
446.14905	26227
446.40771	26544
446.66641	26857
446.92511	27497
447.18381	27916
447.4425	28288
447.70117	28527
447.95987	28964
448.21854	29415
448.47723	29698
448.7359	29796
448.99457	30392
449.25327	30589
449.51193	30796
449.7706	30917
450.02927	30789
450.28793	30618
450.5466	30421
450.80527	29696
451.0639	29381
451.32257	28958
451.58124	28263
451.83987	28098
452.09854	27382
452.35718	27164
452.61584	26748
452.87448	26075
453.13312	26023
453.39175	25455
453.65042	24749
453.90906	24729
454.16769	24435
454.42633	24358
454.68494	23827
454.94357	23701
455.20221	23315
455.46082	22829
455.71945	22775
455.97809	22689
456.23669	22620
456.4953	22343
456.75394	22063
457.01254	22023
457.27115	21797
457.52975	21839
457.78836	21527
458.04697	21422
458.30557	21114
458.56418	21461
458.82275	21445
459.08136	21473
459.33997	21267
459.59854	21231
459.85715	21191
460.11572	20958
460.3743	21287
460.6329	21160
460.89148	21052
461.15005	21149
461.40863	21365
461.66721	21404
461.92578	21301
462.18433	21140
462.4429	21082
462.70148	21370
462.96002	21361
463.2186	21593
463.47714	21925
463.73572	22028
463.99426	21861
464.25281	22179
464.51135	22224
464.7699	22395
465.02844	22340
465.28699	22377
465.54553	22906
465.80408	23027
466.06259	23137
466.32114	23266
466.57968	23147
466.8382	23646
467.09671	24007
467.35526	24119
467.61377	24592
467.87228	24522
468.1308	24806
468.38931	24980
468.64783	24698
468.90634	25326
469.16486	25407
469.42334	25584
469.68185	26303
469.94034	26018
470.19885	26484
470.45734	26374
470.71582	26544
470.97433	26998
471.23282	27074
471.4913	27355
471.74979	27786
472.00827	27946
472.26672	28023
472.52521	28282
472.78369	28745
473.04214	28603
473.30063	28986
473.55908	29018
473.81757	29465
474.07602	29564
474.33447	29629
474.59293	29991
474.85138	30116
475.10983	30312
475.36829	30631
475.62674	30691
475.88516	30981
476.14362	31339
476.40204	31112
476.66049	31240
476.91891	31708
477.17734	31915
477.43579	32078
477.69421	32255
477.95264	31995
478.21106	32274
478.46945	32540
478.72787	32522
478.9863	32461
479.24469	32921
479.50311	33045
479.76151	33196
480.01993	32840
480.27832	33229
480.53671	33292
480.7951	33519
481.0535	33322
481.31189	33300
481.57028	33344
481.82867	33805
482.08704	33545
482.34543	33647
482.60379	34080
482.86218	33695
483.12054	34203
483.37891	33857
483.63727	34056
483.89563	34329
484.15399	34587
484.41235	34703
484.67072	34306
484.92908	34210
485.18741	34191
485.44577	34502
485.7041	34471
485.96243	34684
486.22079	34348
486.47913	34879
486.73746	34555
486.99579	34482
487.25412	34874
487.51242	34875
487.77075	34658
488.02908	34742
488.28738	34836
488.54572	34966
488.80402	34556
489.06232	34653
489.32062	34822
489.57892	35224
489.83722	35208
490.09552	35141
490.35382	35063
490.61212	34846
490.87039	35368
491.12869	35377
491.38696	35144
491.64526	34850
491.90353	35253
492.1618	35285
492.42007	34994
492.67834	35046
492.93661	35362
493.19489	35666
493.45313	35402
493.7114	35213
493.96964	35194
494.22791	35443
494.48615	35294
494.74438	35492
495.00262	35374
495.26086	35992
495.5191	35449
495.77734	35492
496.03558	35085
496.29379	35768
496.55203	35273
496.81024	35816
497.06848	35769
497.32669	35757
497.5849	35716
497.84311	35638
498.10132	35529
498.35953	35734
498.61771	36181
498.87592	36021
499.13412	36153
499.3923	35799
499.65048	35855
499.90869	35736
500.16687	35515
500.42505	35766
500.68323	35737
500.94141	35816
501.19958	35733
501.45773	35831
501.71591	35917
501.97406	35940
502.23224	35455
502.49039	35735
502.74854	35627
503.00668	35833
503.26483	35701
503.52298	36031
503.78113	35603
504.03925	35848
504.29739	36101
504.55551	35789
504.81366	35851
505.07178	35915
505.3299	35423
505.58801	35790
505.84613	35372
506.10425	35668
506.36237	35741
506.62045	36251
506.87857	36157
507.13666	35795
507.39478	36021
507.65286	35721
507.91095	35493
508.16904	35506
508.42712	35767
508.68521	35791
508.94327	35530
509.20135	35675
509.45941	35762
509.7175	35529
509.97556	35592
510.23361	35864
510.49167	35417
510.74973	35444
511.00778	35390
511.26584	35912
511.5239	35528
511.78192	35845
512.03998	35508
512.29797	35610
512.55603	35070
512.81409	35308
513.07208	35215
513.33014	35309
513.58813	34947
513.84613	35128
514.10419	34824
514.36218	35328
514.62018	34882
514.87817	35109
515.13617	35019
515.39417	34684
515.65216	34822
515.91016	34686
516.16815	35092
516.42615	34546
516.68408	34959
516.94208	34814
517.20007	34265
517.45801	34636
517.716	34875
517.97394	34007
518.23193	34453
518.48987	34376
518.7478	34528
519.0058	34236
519.26373	34203
519.52167	34381
519.7796	34388
520.03754	34171
520.29547	34190
520.55341	33731
520.81134	33865
521.06927	33816
521.32715	33707
521.58508	34013
521.84302	33694
522.10089	33866
522.35883	33682
522.6167	33592
522.87463	33246
523.13251	33458
523.39038	33561
523.64825	33193
523.90619	33265
524.16406	33103
524.42194	32974
524.67981	33222
524.93768	33301
525.19556	33221
525.45337	32635
525.71124	32954
525.96912	32967
526.22699	32868
526.4848	32806
526.74268	32597
527.00049	32652
527.25836	32688
527.51617	32602
527.77399	32691
528.0318	32310
528.28967	32130
528.54749	32265
528.8053	32223
529.06311	32005
529.32092	32256
529.57874	31793
529.83655	31812
530.0943	31642
530.35211	31628
530.60992	31508
530.86768	31834
531.12549	31547
531.38324	31353
531.64105	31142
531.8988	31316
532.15656	31240
532.41437	31278
532.67212	31243
532.92987	31093
533.18762	30844
533.44537	31089
533.70313	30968
533.96088	30799
534.21857	30498
534.47632	30833
534.73407	30559
534.99182	30604
535.24951	30385
535.50726	30179
535.76495	30648
536.02264	30328
536.2804	30518
536.53809	30121
536.79578	30308
537.05347	30134
537.31116	30429
537.56885	30212
537.82654	30291
538.08423	30163
538.34192	29867
538.59961	30185
538.85724	29611
539.11493	29519
539.37262	29361
539.63025	29571
539.88794	29249
540.14557	28922
540.4032	29147
540.66089	29307
540.91852	29396
541.17615	29397
541.43378	29140
541.69141	28976
541.94904	28843
542.20667	29259
542.46429	28839
542.72186	28981
542.97949	28899
543.23712	28729
543.49469	28792
543.75232	28421
544.00989	28776
544.26752	28446
544.52509	28350
544.78265	28449
545.04022	28535
545.29779	28318
545.55542	28611
545.81293	28197
546.0705	28315
546.32806	28069
546.58563	28079
546.8432	27862
547.10071	28040
547.35828	27598
547.61584	27835
547.87335	27738
548.13086	27481
548.38843	28140
548.64594	27790
548.90344	27457
549.16095	27882
549.41846	27720
549.67596	27103
549.93347	27460
550.19098	27546
550.44849	27493
550.70599	27480
550.96344	27565
551.22095	27214
551.47845	27390
551.7359	27087
551.99335	27508
552.25085	27527
552.5083	27479
552.76575	27090
553.02319	27300
553.28064	27048
553.53809	27426
553.79553	26921
554.05298	26953
554.31042	27001
554.56787	26879
554.82526	27163
555.0827	26855
555.34015	26533
555.59753	26864
555.85492	27014
556.11237	26519
556.36975	27022
556.62714	26511
556.88452	26684
557.14191	26711
557.39929	26750
557.65668	26768
557.91406	26354
558.17145	26839
558.42883	26554
558.68616	26433
558.94354	26708
559.20087	26366
559.45825	26660
559.71558	26422
559.9729	26215
560.23029	26396
560.48761	26552
560.74493	26216
561.00226	26278
561.25958	26398
561.51691	26418
561.77423	26505
562.03149	26098
562.28882	26387
562.54614	26262
562.80341	25872
563.06067	26172
563.31799	25961
563.57526	26361
563.83252	26209
564.08984	26260
564.34711	26204
564.60437	26180
564.86163	26119
565.1189	26162
565.3761	26097
565.63336	25940
565.89063	25946
566.14783	26234
566.40509	26095
566.66229	26300
566.91956	26035
567.17676	26043
567.43396	26141
567.69116	25836
567.94843	26410
568.20563	26009
568.46283	26114
568.71997	26438
568.97717	26286
569.23438	26203
569.49158	25762
569.74872	26092
570.00592	25868
570.26306	26098
570.52026	26266
570.7774	26242
571.03455	26077
571.29169	25966
571.54883	26112
571.80597	26006
572.06311	26104
572.32025	25965
572.57739	26515
572.83453	26003
573.09161	26008
573.34875	26505
573.60583	25947
573.86298	26192
574.12006	26414
574.37714	26242
574.63422	26162
574.89136	25841
575.14844	26019
575.40552	26213
575.6626	26009
575.91962	26120
576.1767	25896
576.43378	26191
576.6908	26316
576.94788	26560
577.2049	25679
577.46198	26517
577.71899	26419
577.97601	26336
578.23303	26249
578.49005	26228
578.74707	26278
579.00409	26342
579.26111	26819
579.51813	26586
579.77515	26299
580.0321	26526
580.28912	26407
580.54608	26247
580.8031	26639
581.06006	26924
581.31702	26649
581.57397	26717
581.83093	26808
582.08789	26634
582.34485	26515
582.60181	26817
582.85876	26913
583.11566	26908
583.37262	26955
583.62958	26880
583.88647	27003
584.14337	27181
584.40033	26860
584.65723	27001
584.91412	27073
585.17102	27191
585.42792	27083
585.68481	26909
585.94171	27123
586.19861	27060
586.45544	27414
586.71234	26865
586.96918	27281
587.22607	27232
587.48291	27258
587.73981	27000
587.99664	27285
588.25348	27475
588.51031	27353
588.76715	27512
589.02399	27323
589.28082	27013
589.5376	27495
589.79443	27765
590.05127	27342
590.30804	27531
590.56482	28116
590.82166	27563
591.07843	27733
591.33521	27764
591.59198	27439
591.84875	27456
592.10553	28044
592.3623	27809
592.61908	28042
592.87579	28146
593.13257	28064
593.38934	27933
593.64606	27863
593.90277	27940
594.15955	28160
594.41626	28244
594.67297	28014
594.92969	28019
595.1864	28257
595.44312	28256
595.69983	28177
595.95648	28108
596.2132	28268
596.46991	28436
596.72656	28339
596.98322	28764
597.23993	28533
597.49658	28269
597.75323	28892
598.00989	28285
598.26654	28671
598.52319	28769
598.77985	29102
599.0365	29135
599.29309	29010
599.54974	29237
599.80634	28870
600.06299	28798
600.31958	28963
600.57617	28955
600.83276	29217
601.08936	29254
601.34595	28979
601.60254	29306
601.85913	28791
602.11572	29327
602.37225	29242
602.62885	29715
602.88544	29278
603.14197	29253
603.3985	29494
603.65503	29846
603.91162	29558
604.16815	29293
604.42468	29708
604.68121	29683
604.93768	29591
605.19421	29602
605.45074	29680
605.70721	29518
605.96375	29867
606.22021	30017
606.47668	29900
606.73322	30079
606.98969	30113
607.24615	30147
607.50262	29737
607.75909	29859
608.0155	30181
608.27197	30144
608.52844	30279
608.78485	30319
609.04132	30265
609.29773	30366
609.55414	30170
609.81055	30356
610.06696	30400
610.32336	30708
610.57977	30376
610.83618	30164
611.09259	30490
611.349	30644
611.60535	30861
611.86176	30904
612.1181	30874
612.37445	30812
612.63086	30944
612.88721	30724
613.14355	30908
613.3999	31144
613.65625	30948
613.91254	31104
614.16888	31013
614.42523	31185
614.68152	31273
614.93787	31525
615.19415	31186
615.45044	31140
615.70673	31338
615.96307	31218
616.21936	31303
616.47559	31378
616.73187	31325
616.98816	31363
617.24445	31480
617.50067	31359
617.75696	31713
618.01318	31704
618.26941	31806
618.5257	31660
618.78192	31525
619.03815	31552
619.29437	31789
619.55054	31584
619.80676	32022
620.06299	31893
620.31915	31655
620.57538	31521
620.83154	31914
621.08777	31929
621.34393	31726
621.6001	32027
621.85626	31892
622.11243	32018
622.36859	31724
622.62469	32239
622.88086	32238
623.13702	32086
623.39313	31776
623.64929	32053
623.9054	32646
624.1615	32135
624.4176	32296
624.67371	32000
624.92981	32250
625.18591	32485
625.44202	32381
625.69806	32329
625.95416	32611
626.21021	32237
626.46631	32805
626.72235	32407
626.97839	32382
627.23444	32849
627.49048	32528
627.74652	32745
628.00256	32778
628.25861	32568
628.51465	32618
628.77063	32673
629.02667	32848
629.28265	32729
629.53864	33075
629.79462	32775
630.0506	32610
630.30658	32852
630.56256	32825
630.81854	32771
631.07452	32713
631.33044	32967
631.58643	33199
631.84235	32836
632.09833	33024
632.35425	32934
632.61017	32822
632.86609	33001
633.12201	32844
633.37793	32665
633.63385	32733
633.88977	33316
634.14563	32832
634.40155	32713
634.65741	32908
634.91327	32860
635.16919	32776
635.42505	32952
635.68091	32817
635.93677	32891
636.19257	32862
636.44843	32990
636.70428	32891
636.96008	32996
637.21594	32984
637.47174	32898
637.72754	32755
637.9834	32512
638.2392	32517
638.495	32521
638.75073	32705
639.00653	33248
639.26233	32987
639.51807	32770
639.77386	32762
640.0296	32933
640.2854	33041
640.54114	32400
640.79688	32961
641.05261	32259
641.30835	33029
641.56409	32624
641.81976	32832
642.0755	32429
642.33118	32662
642.58691	32662
642.84259	32608
643.09827	32910
643.354	32715
643.60968	32669
643.86536	32439
644.12097	32809
644.37665	32833
644.63232	32621
644.88794	32626
645.14362	32561
645.39923	32300
645.65485	32495
645.91046	32162
646.16608	32438
646.42169	32199
646.67731	32315
646.93292	32422
647.18854	32217
647.44409	32159
647.69971	32369
647.95526	32170
648.21082	32195
648.46637	32123
648.72192	32040
648.97748	32050
649.23303	32241
649.48859	32005
649.74414	31793
649.99963	31820
650.25519	31386
650.51068	31712
650.76617	31871
651.02167	31586
651.27722	31657
651.53265	31732
651.78815	31838
652.04364	31414
652.29913	31718
652.55457	31621
652.81006	31810
653.06549	31692
653.32092	31363
653.57635	31393
653.83185	31099
654.08722	31396
654.34265	31460
654.59808	31056
654.85352	31271
655.10889	31200
655.36432	31240
655.61969	31330
655.87506	30960
656.13043	30948
656.3858	30924
656.64117	30894
656.89655	30897
657.15192	30966
657.40729	30607
657.6626	30615
657.91791	30665
658.17328	30742
658.42859	30337
658.6839	30976
658.93921	30354
659.19452	30808
659.44983	30550
659.70508	30586
659.96039	30520
660.2157	30554
660.47095	30284
660.7262	30269
660.98145	30283
661.23669	30080
661.49194	29974
661.74719	30217
662.00244	29793
662.25769	29553
662.51288	29577
662.76813	29518
663.02332	29836
663.2785	29663
663.53369	29693
663.78894	29539
664.04407	29339
664.29926	29149
664.55444	29199
664.80963	29029
665.06476	29514
665.31995	29322
665.57507	29165
665.8302	29138
666.08533	28976
666.34045	29164
666.59558	29042
666.85071	28993
667.10577	28831
667.3609	28858
667.61597	28672
667.87109	28668
668.12616	28564
668.38123	28585
668.63629	28546
668.89136	28831
669.14642	28413
669.40149	28339
669.65649	28216
669.91156	27989
670.16656	28140
670.42157	28079
670.67664	27995
670.93164	28032
671.18665	27746
671.44159	27869
671.69659	27662
671.9516	28154
672.20654	27667
672.46155	27536
672.71649	27535
672.97144	27300
673.22638	26998
673.48132	27512
673.73627	27297
673.99121	27222
674.24615	26921
674.50104	26849
674.75598	27018
675.01086	26757
675.26575	26653
675.52063	27160
675.77551	26522
676.0304	26995
676.28528	26559
676.54016	26511
676.79498	26523
677.04987	26459
677.30469	25974
677.55957	26255
677.81439	26218
678.06921	25970
678.32404	25993
678.5788	25971
678.83362	25994
679.08844	25741
679.3432	25892
679.59802	25759
679.85278	25497
680.10754	25440
680.3623	25542
680.61707	25361
680.87183	25267
681.12659	25264
681.38129	25468
681.63605	25241
681.89075	25355
682.14545	25020
682.40021	24540
682.65491	24965
682.90961	24898
683.16425	24859
683.41895	24769
683.67365	24833
683.92828	24411
684.18298	24498
684.43762	24300
684.69226	24384
684.9469	24294
685.20154	24042
685.45618	23952
685.71082	24094
685.96539	23774
686.22003	23799
686.47461	23717
686.72919	23619
686.98376	23745
687.23834	23409
687.49292	23383
687.7475	23357
688.00208	23112
688.25659	23514
688.51117	23137
688.76569	23102
689.02026	23183
689.27478	23062
689.5293	22508
689.78381	22909
690.03827	22672
690.29279	22626
690.5473	22635
690.80176	22631
691.05621	22557
691.31073	22434
691.56519	22245
691.81964	22049
692.0741	22600
692.32849	22082
692.58295	21884
692.8374	22074
693.0918	21933
693.34619	21658
693.60065	21554
693.85504	21405
694.10944	21471
694.36377	21094
694.61816	21157
694.87256	21372
695.12689	20835
695.38129	20733
695.63562	21053
695.88995	20935
696.14429	20751
696.39862	20961
696.65295	20537
696.90729	20438
697.16156	20809
697.41589	20630
697.67017	20410
697.92444	19898
698.17871	20212
698.43298	19987
698.68726	19766
698.94153	20032
699.1958	20003
699.45001	19876
699.70428	19564
699.9585	19497
700.21271	19706
700.46692	19486
700.72113	19431
700.97534	19319
701.22955	19215
701.4837	19142
701.73792	19156
701.99207	18995
702.24622	19088
702.50037	18926
702.75452	19117
703.00867	18951
703.26282	18509
703.51697	18508
703.77106	18566
704.02521	18337
704.2793	18458
704.53339	18391
704.78748	18185
705.04156	18063
705.29565	18017
705.54974	17864
705.80377	18085
706.05786	17660
706.31189	17808
706.56592	17593
706.81995	17471
707.07397	17384
707.328	17722
707.58203	17061
707.83606	17457
708.09003	16970
708.34406	17012
708.59802	16757
708.85199	16848
709.10596	16704
709.35992	16758
709.61389	16566
709.8678	16531
710.12177	16337
710.37567	16654
710.62964	16449
710.88354	16351
711.13745	16226
711.39136	16006
711.64526	16087
711.89917	16134
712.15302	15808
712.40692	15928
712.66077	15878
712.91461	15806
713.16846	15464
713.4223	15588
713.67615	15534
713.92999	15437
714.18378	15339
714.43762	15267
714.69141	15112
714.94525	15033
715.19904	15041
715.45282	15309
715.7066	14986
715.96033	14908
716.21411	14992
716.46783	14883
716.72162	14998
716.97534	14644
717.22906	14735
717.48279	14635
717.73651	14341
717.99023	14572
718.24396	14266
718.49762	14492
718.75134	14146
719.005	14137
719.25867	13959
719.51233	14092
719.76599	13915
720.01965	13851
720.27325	14046
720.52692	13962
720.78052	13682
721.03418	13807
721.28778	13670
721.54138	13421
721.79498	13613
722.04858	13279
722.30212	13485
722.55573	13317
722.80927	13205
723.06281	13321
723.31641	13194
723.56995	13060
723.82349	13004
724.07697	12894
724.33051	13008
724.58405	13194
724.83752	12750
725.091	12749
725.34454	12679
725.59802	12893
725.85144	12591
726.10492	12438
726.3584	12505
726.61182	12375
726.8653	12415
727.11871	12326
727.37213	12320
727.62555	12186
727.87897	11899
728.13239	12161
728.3858	12022
728.63916	11895
728.89258	11979
729.14594	11898
729.39929	11695
729.65265	11760
729.90601	11784
730.15936	11492
730.41266	11503
730.66602	11427
730.91931	11530
731.17267	11310
731.42596	11306
731.67926	11286
731.93256	11390
732.18579	11113
732.43909	11100
732.69232	11147
732.94562	10745
733.19885	10842
733.45209	10683
733.70532	10861
733.95856	10779
734.21179	10701
734.46497	10364
734.7182	10411
734.97137	10412
735.22455	10272
735.47772	10248
735.7309	10211
735.98407	10094
736.23724	9951
736.49036	10025
736.74353	9925
736.99664	9945
737.24976	9897
737.50287	9680
737.75598	9686
738.00909	9649
738.26221	9557
738.51526	9676
738.76837	9546
739.02142	9607
739.27448	9509
739.52753	9471
739.78058	9347
740.03363	9221
740.28662	9269
740.53967	9255
740.79266	9085
741.04565	9046
741.29865	8972
741.55164	8720
741.80463	8934
742.05762	8658
742.31055	8620
742.56354	8724
742.81647	8710
743.0694	8487
743.32233	8253
743.57526	8338
743.82819	8396
744.08105	8278
744.33398	8269
744.58685	8299
744.83978	8202
745.09265	8166
745.34552	8143
745.59839	8053
745.8512	8060
746.10406	8059
746.35687	7922
746.60974	7846
746.86255	7932
747.11536	7616
747.36816	7725
747.62091	7493
747.87372	7384
748.12653	7449
748.37927	7345
748.63202	7386
748.88477	7390
749.13751	7314
749.39026	7244
749.64301	7331
749.89569	7282
750.14844	7391
750.40112	7051
750.65381	7206
750.90649	7151
751.15918	7022
751.41187	7054
751.66455	6995
751.91718	6879
752.16986	6778
752.42249	6817
752.67511	6883
752.92773	6654
753.18036	6590
753.43292	6733
753.68555	6524
753.93811	6604
754.19073	6605
754.4433	6404
754.69586	6401
754.94843	6347
755.20093	6398
755.45349	6370
755.70599	6200
755.95856	6204
756.21106	6229
756.46356	6150
756.71606	6033
756.96857	5839
757.22101	6043
757.47351	6024
757.72595	5900
757.97845	5774
758.2309	5714
758.48334	5818
758.73572	5763
758.98816	5793
759.2406	5731
759.49298	5545
759.74536	5696
759.9978	5637
760.25018	5645
760.5025	5608
760.75488	5534
761.00726	5466
761.25958	5539
761.51196	5278
761.76428	5443
762.0166	5196
762.26892	5272
762.52118	5121
762.7735	5177
763.02582	5265
763.27808	5200
763.53033	5218
763.78259	5119
764.03485	5089
764.28711	5030
764.53937	5008
764.79156	4988
765.04376	4940
765.29602	4943
765.54822	4829
765.80042	4906
766.05261	4773
766.30475	4632
766.55695	4624
766.80908	4665
767.06122	4664
767.31342	4495
767.56549	4607
767.81763	4663
768.06976	4466
768.3219	4618
768.57397	4209
768.82605	4343
769.07813	4394
769.3302	4389
769.58228	4349
769.83435	4356
770.08643	4386
770.33844	4250
770.59045	4199
770.84247	4225
771.09448	4271
771.3465	4157
771.59851	4032
771.85052	4113
772.10248	4021
772.35443	4047
772.60645	4033
772.8584	3996
773.11029	4017
773.36224	3862
773.6142	3844
773.86609	3833
774.11798	3839
774.36993	3817
774.62183	3781
774.87372	3720
775.12555	3777
775.37744	3736
775.62927	3718
775.88116	3694
776.133	3655
776.38483	3574
776.63666	3573
776.88843	3568
777.14026	3551
777.39203	3538
777.64386	3504
777.89563	3562
778.1474	3439
778.39917	3439
778.65094	3403
778.90265	3321
779.15442	3333
779.40613	3331
779.65784	3361
779.90955	3323
780.16125	3248
780.41296	3225
780.66461	3095
780.91632	3134
781.16797	3146
781.41962	3160
781.67126	3132
781.92291	3227
782.17456	3062
782.42615	3007
782.6778	3144
782.92938	2946
783.18097	3012
783.43256	2976
783.68414	2970
783.93567	2845
784.18726	2967
784.43878	2926
784.69037	2825
784.94189	2817
785.19342	2877
785.44495	2903
785.69641	2763
785.94794	2738
786.1994	2687
786.45087	2834
786.70233	2694
786.9538	2686
787.20526	2689
787.45673	2703
787.70813	2608
787.95959	2636
788.211	2565
788.4624	2522
788.71381	2592
788.96515	2508
789.21655	2491
789.46796	2494
789.7193	2467
789.97064	2512
790.22198	2505
790.47333	2472
790.72467	2451
790.97595	2424
791.22729	2389
791.47858	2358
791.72986	2428
791.98114	2346
792.23242	2419
792.48364	2324
792.73492	2297
792.98615	2343
793.23743	2172
793.48865	2256
793.73987	2288
793.99103	2148
794.24225	2200
794.49347	2198
794.74463	2159
794.99579	2117
795.24695	2127
795.49811	2214
795.74927	2083
796.00037	2173
796.25153	2086
796.50262	2061
796.75372	1978
797.00482	2106
797.25592	1981
797.50702	2148
797.75806	2089
798.00916	2014
798.26019	1994
798.51123	2029
798.76227	1972
799.01331	1934
799.26428	1974
799.51532	1930
799.7663	1933
800.01727	1934
800.26825	1895
800.51923	1945
800.7702	1835
801.02118	1882
801.27209	1808
801.52301	1853
801.77393	1799
802.02484	1890
802.27576	1795
802.52667	1851
802.77753	1723
803.02844	1742
803.2793	1753
803.53015	1741
803.78101	1776
804.03186	1725
804.28265	1755
804.53351	1732
804.7843	1737
805.0351	1690
805.28589	1669
805.53668	1677
805.78748	1672
806.03821	1688
806.28894	1667
806.53973	1664
806.79047	1638
807.0412	1570
807.29187	1680
807.5426	1546
807.79327	1602
808.04401	1656
808.29468	1520
808.54535	1533
808.79602	1568
809.04663	1551
809.2973	1525
809.54791	1475
809.79852	1484
810.04913	1484
810.29974	1482
810.55035	1496
810.80096	1481
811.05151	1472
811.30206	1499
811.55267	1478
811.80322	1471
812.05371	1359
812.30426	1512
812.55481	1445
812.8053	1379
813.05579	1353
813.30627	1420
813.55676	1437
813.80725	1377
814.05768	1415
814.30817	1410
814.55859	1330
814.80902	1340
815.05945	1378
815.30988	1270
815.56024	1335
815.81067	1319
816.06104	1250
816.3114	1316
816.56177	1260
816.81213	1387
817.0625	1319
817.31281	1294
817.56317	1315
817.81348	1203
818.06378	1228
818.31409	1324
818.56439	1202
818.81464	1243
819.06494	1215
819.31519	1215
819.56543	1221
819.81567	1199
820.06592	1186
820.31616	1175
820.56635	1237
820.81653	1213
821.06671	1176
821.31689	1171
821.56708	1220
821.81726	1212
822.06744	1153
822.31757	1180
822.56769	1153
822.81781	1199
823.06793	1168
823.31805	1128
823.56812	1172
823.81824	1091
824.0683	1124
824.31836	1078
824.56842	1135
824.81848	1178
825.06848	1102
825.31854	1147
825.56854	1075
825.81854	1049
826.06854	1119
826.31854	1099
826.56854	1132
826.81848	1049
827.06848	1066
827.31842	1107
827.56836	1081
827.8183	1043
828.06818	1092
828.31812	1018
828.56799	1072
828.81787	1070
829.06775	1096
829.31763	995
829.5675	996
829.81738	1000
830.0672	983
830.31702	1014
830.56683	1020
830.81665	960
831.06647	1022
831.31628	1020
831.56604	956
831.8158	1008
832.06555	1001
832.31531	1012
832.56506	974
832.81482	934
833.06451	943
833.31421	926
833.56396	966
833.8136	979
834.06329	950
834.31299	905
834.56262	971
834.81232	957
835.06195	905
835.31158	944
835.56122	942
835.81079	932
836.06042	942
836.31	883
836.55957	845
836.80914	926
837.05872	889
837.30829	905
837.5578	938
837.80737	891
838.05688	919
838.3064	932
838.55591	893
838.80536	883
839.05487	883
839.30432	852
839.55377	894
839.80322	894
840.05267	873
840.30212	880
840.55151	901
840.80096	901
841.05035	865
841.29974	886
841.54913	849
841.79852	872
842.04785	867
842.29724	844
842.54657	831
842.7959	844
843.04523	913
843.29449	838
843.54382	803
843.79309	853
844.04236	897
844.29169	873
844.54089	794
844.79016	803
845.03943	837
845.28864	790
845.53784	803
845.78705	833
