Date and Time:                Sun Apr 14 16:17:35.469 2024
Software Version:             4.30.30000.0
Temperature (C):              -90
Model:                        DU971P_UVB
Data Type:                    Counts
Acquisition Mode:             Single Scan
Trigger Mode:                 Internal
Exposure Time (secs):         1
Readout Mode:                 Full Vertical Binning
Horizontal binning:           1
Extended Dynamic Range:       off
Horizontally flipped:         false
Vertical Shift Speed (usecs): 9.68
Pixel Readout Rate (MHz):     3
Baseline Clamp:               ON
Clock Amplitude:              Normal
Output Amplifier:             Conventional
Serial Number:                20367
Pre-Amplifier Gain:           4x
Spurious Noise Filter Mode:   No Filter
Photon counted:               false
Data Averaging Filter Mode:   No Filter
SR193i:
Serial Number:                SR-2646
Wavelength (nm):              650
Grating Groove Density (l/mm):300
Grating Blaze:                500nm
Input Side Slit Width (um):   1000



437.86981	9766
438.12854	10328
438.3873	11255
438.64606	11847
438.90482	12150
439.16354	13154
439.4223	13650
439.68103	14215
439.93979	14561
440.19852	15209
440.45724	15580
440.716	16283
440.97473	16742
441.23346	17521
441.49219	17911
441.75092	18427
442.00964	18884
442.26837	19346
442.5271	20340
442.78583	20747
443.04456	21170
443.30325	21848
443.56198	21784
443.82068	22785
444.07941	23174
444.3381	23731
444.59683	24090
444.85553	24405
445.11423	24977
445.37292	25861
445.63165	25826
445.89035	26688
446.14905	26950
446.40771	27076
446.66641	27809
446.92511	28416
447.18381	28330
447.4425	28968
447.70117	29457
447.95987	30221
448.21854	30096
448.47723	30138
448.7359	30786
448.99457	31479
449.25327	31591
449.51193	31757
449.7706	32022
450.02927	32021
450.28793	32116
450.5466	31295
450.80527	31175
451.0639	30321
451.32257	30181
451.58124	29890
451.83987	28901
452.09854	28787
452.35718	28274
452.61584	28003
452.87448	27635
453.13312	27285
453.39175	26628
453.65042	26392
453.90906	26083
454.16769	25987
454.42633	25347
454.68494	25331
454.94357	24960
455.20221	24762
455.46082	24617
455.71945	24191
455.97809	24381
456.23669	24064
456.4953	23835
456.75394	23790
457.01254	23544
457.27115	23554
457.52975	23082
457.78836	23324
458.04697	23300
458.30557	22907
458.56418	22915
458.82275	22715
459.08136	22985
459.33997	22944
459.59854	23229
459.85715	22556
460.11572	22719
460.3743	22652
460.6329	22797
460.89148	22941
461.15005	22836
461.40863	22622
461.66721	23106
461.92578	23074
462.18433	23292
462.4429	23025
462.70148	23563
462.96002	23655
463.2186	23579
463.47714	23784
463.73572	24383
463.99426	23961
464.25281	24282
464.51135	24322
464.7699	24553
465.02844	24954
465.28699	25076
465.54553	24945
465.80408	24971
466.06259	25145
466.32114	25514
466.57968	26045
466.8382	25573
467.09671	26297
467.35526	26352
467.61377	26908
467.87228	27126
468.1308	27076
468.38931	27307
468.64783	27513
468.90634	28267
469.16486	28343
469.42334	28264
469.68185	28592
469.94034	28865
470.19885	29217
470.45734	29510
470.71582	29418
470.97433	29497
471.23282	30160
471.4913	30486
471.74979	30477
472.00827	30791
472.26672	31035
472.52521	31058
472.78369	31326
473.04214	31881
473.30063	31824
473.55908	32469
473.81757	32362
474.07602	32742
474.33447	32898
474.59293	32865
474.85138	33191
475.10983	33434
475.36829	33184
475.62674	34287
475.88516	34166
476.14362	34529
476.40204	34185
476.66049	35127
476.91891	35382
477.17734	35436
477.43579	35306
477.69421	35540
477.95264	35802
478.21106	35876
478.46945	35997
478.72787	36355
478.9863	36339
479.24469	36578
479.50311	36895
479.76151	36632
480.01993	36750
480.27832	37023
480.53671	36695
480.7951	37272
481.0535	37550
481.31189	37140
481.57028	37376
481.82867	37185
482.08704	37420
482.34543	37963
482.60379	37683
482.86218	37834
483.12054	37501
483.37891	37955
483.63727	38259
483.89563	37980
484.15399	37779
484.41235	37721
484.67072	37857
484.92908	38537
485.18741	38192
485.44577	38059
485.7041	38229
485.96243	38152
486.22079	38167
486.47913	38452
486.73746	38443
486.99579	38462
487.25412	38956
487.51242	38812
487.77075	38562
488.02908	38719
488.28738	38713
488.54572	38713
488.80402	38741
489.06232	38877
489.32062	38851
489.57892	38621
489.83722	39198
490.09552	38957
490.35382	38660
490.61212	39208
490.87039	38983
491.12869	39155
491.38696	39193
491.64526	39349
491.90353	39438
492.1618	39320
492.42007	39269
492.67834	39340
492.93661	39421
493.19489	39430
493.45313	39691
493.7114	39237
493.96964	39187
494.22791	39307
494.48615	39278
494.74438	39840
495.00262	39507
495.26086	39377
495.5191	39884
495.77734	39870
496.03558	39661
496.29379	39767
496.55203	39851
496.81024	39700
497.06848	39781
497.32669	39580
497.5849	39848
497.84311	39940
498.10132	39597
498.35953	39573
498.61771	39961
498.87592	39865
499.13412	39828
499.3923	39452
499.65048	40217
499.90869	39788
500.16687	39843
500.42505	39738
500.68323	39693
500.94141	39777
501.19958	39911
501.45773	40031
501.71591	39858
501.97406	39902
502.23224	40031
502.49039	39919
502.74854	39617
503.00668	39843
503.26483	39492
503.52298	40070
503.78113	39512
504.03925	39673
504.29739	40185
504.55551	40017
504.81366	40351
505.07178	39728
505.3299	40007
505.58801	39720
505.84613	39533
506.10425	39844
506.36237	39529
506.62045	39860
506.87857	39805
507.13666	39968
507.39478	39740
507.65286	39139
507.91095	39642
508.16904	39779
508.42712	39390
508.68521	39446
508.94327	39648
509.20135	39614
509.45941	39493
509.7175	39733
509.97556	39428
510.23361	39402
510.49167	39607
510.74973	39324
511.00778	39583
511.26584	39573
511.5239	39832
511.78192	39667
512.03998	39950
512.29797	39282
512.55603	39538
512.81409	38992
513.07208	39191
513.33014	38870
513.58813	39046
513.84613	39099
514.10419	39108
514.36218	38701
514.62018	39061
514.87817	39156
515.13617	38763
515.39417	39061
515.65216	38692
515.91016	38840
516.16815	38457
516.42615	38552
516.68408	38446
516.94208	38786
517.20007	37931
517.45801	38226
517.716	38198
517.97394	38358
518.23193	38431
518.48987	38315
518.7478	38209
519.0058	38159
519.26373	37953
519.52167	37998
519.7796	37931
520.03754	37974
520.29547	37588
520.55341	37628
520.81134	37396
521.06927	37909
521.32715	37899
521.58508	37228
521.84302	37595
522.10089	37399
522.35883	37359
522.6167	37445
522.87463	37135
523.13251	37160
523.39038	37166
523.64825	36873
523.90619	36915
524.16406	37038
524.42194	36765
524.67981	36860
524.93768	36467
525.19556	36636
525.45337	36343
525.71124	36630
525.96912	36662
526.22699	36167
526.4848	36213
526.74268	36457
527.00049	36099
527.25836	35879
527.51617	35841
527.77399	35848
528.0318	35589
528.28967	35730
528.54749	35769
528.8053	35999
529.06311	35408
529.32092	35648
529.57874	35130
529.83655	35221
530.0943	35167
530.35211	35262
530.60992	35210
530.86768	35084
531.12549	34599
531.38324	35052
531.64105	34975
531.8988	34985
532.15656	34617
532.41437	34481
532.67212	34756
532.92987	34241
533.18762	34264
533.44537	34476
533.70313	33970
533.96088	34051
534.21857	34088
534.47632	34004
534.73407	34178
534.99182	33602
535.24951	33762
535.50726	34105
535.76495	33409
536.02264	33661
536.2804	33427
536.53809	33582
536.79578	33437
537.05347	33617
537.31116	33137
537.56885	33260
537.82654	32907
538.08423	33416
538.34192	33103
538.59961	32853
538.85724	32988
539.11493	33012
539.37262	32568
539.63025	32424
539.88794	32613
540.14557	32163
540.4032	32494
540.66089	32431
540.91852	32532
541.17615	32604
541.43378	32205
541.69141	32101
541.94904	32048
542.20667	32314
542.46429	32207
542.72186	31691
542.97949	31806
543.23712	31670
543.49469	31646
543.75232	31333
544.00989	31455
544.26752	31493
544.52509	31468
544.78265	31138
545.04022	31485
545.29779	31496
545.55542	31247
545.81293	31493
546.0705	31376
546.32806	31152
546.58563	31122
546.8432	30593
547.10071	30724
547.35828	30936
547.61584	30731
547.87335	30958
548.13086	30150
548.38843	30777
548.64594	30661
548.90344	30518
549.16095	30615
549.41846	30193
549.67596	30114
549.93347	30688
550.19098	30490
550.44849	30306
550.70599	30102
550.96344	30385
551.22095	30026
551.47845	29887
551.7359	30081
551.99335	30136
552.25085	30078
552.5083	29778
552.76575	29921
553.02319	29730
553.28064	29836
553.53809	29555
553.79553	30001
554.05298	29603
554.31042	29612
554.56787	30241
554.82526	29609
555.0827	29349
555.34015	29322
555.59753	29785
555.85492	29286
556.11237	29465
556.36975	29805
556.62714	29551
556.88452	29324
557.14191	29142
557.39929	29599
557.65668	29682
557.91406	29219
558.17145	29476
558.42883	28897
558.68616	29172
558.94354	29100
559.20087	29248
559.45825	29018
559.71558	29017
559.9729	28774
560.23029	29302
560.48761	29002
560.74493	29427
561.00226	28938
561.25958	28757
561.51691	29015
561.77423	29094
562.03149	29064
562.28882	28803
562.54614	28501
562.80341	28589
563.06067	29023
563.31799	28872
563.57526	28609
563.83252	28683
564.08984	28571
564.34711	28845
564.60437	28890
564.86163	28894
565.1189	28610
565.3761	28961
565.63336	28823
565.89063	28849
566.14783	28744
566.40509	28659
566.66229	28950
566.91956	28346
567.17676	28404
567.43396	28594
567.69116	28686
567.94843	28698
568.20563	28426
568.46283	28592
568.71997	28448
568.97717	28414
569.23438	28449
569.49158	28604
569.74872	28532
570.00592	28635
570.26306	28301
570.52026	28313
570.7774	28569
571.03455	28476
571.29169	28289
571.54883	28602
571.80597	28249
572.06311	28627
572.32025	28303
572.57739	28418
572.83453	28824
573.09161	28255
573.34875	28110
573.60583	28574
573.86298	28260
574.12006	28341
574.37714	28201
574.63422	28494
574.89136	28413
575.14844	28555
575.40552	28292
575.6626	28327
575.91962	28175
576.1767	28597
576.43378	28730
576.6908	28538
576.94788	28323
577.2049	28863
577.46198	28538
577.71899	28679
577.97601	28517
578.23303	28530
578.49005	28900
578.74707	28791
579.00409	28648
579.26111	28592
579.51813	28580
579.77515	29102
580.0321	28837
580.28912	28853
580.54608	29124
580.8031	28815
581.06006	28785
581.31702	28617
581.57397	29105
581.83093	28756
582.08789	29031
582.34485	29085
582.60181	29160
582.85876	28890
583.11566	29105
583.37262	29027
583.62958	29101
583.88647	29334
584.14337	29272
584.40033	29148
584.65723	29097
584.91412	29250
585.17102	29362
585.42792	29161
585.68481	29131
585.94171	29311
586.19861	29740
586.45544	29548
586.71234	29566
586.96918	29546
587.22607	29803
587.48291	29498
587.73981	29430
587.99664	29491
588.25348	29589
588.51031	29717
588.76715	29939
589.02399	29905
589.28082	29879
589.5376	30062
589.79443	29593
590.05127	29653
590.30804	30086
590.56482	30130
590.82166	30047
591.07843	29759
591.33521	30004
591.59198	29907
591.84875	29903
592.10553	30277
592.3623	30311
592.61908	29784
592.87579	29785
593.13257	30308
593.38934	30381
593.64606	29942
593.90277	29938
594.15955	30289
594.41626	30418
594.67297	30421
594.92969	30517
595.1864	30275
595.44312	30502
595.69983	30321
595.95648	30880
596.2132	30947
596.46991	30885
596.72656	30458
596.98322	30554
597.23993	30527
597.49658	30843
597.75323	30745
598.00989	30918
598.26654	31162
598.52319	31185
598.77985	31000
599.0365	31284
599.29309	31312
599.54974	30972
599.80634	31194
600.06299	31160
600.31958	31117
600.57617	31315
600.83276	31126
601.08936	31617
601.34595	31035
601.60254	31105
601.85913	31226
602.11572	31628
602.37225	31986
602.62885	31688
602.88544	31465
603.14197	31500
603.3985	31693
603.65503	31464
603.91162	31921
604.16815	31911
604.42468	31613
604.68121	31955
604.93768	31745
605.19421	31885
605.45074	31899
605.70721	32046
605.96375	32007
606.22021	31986
606.47668	32070
606.73322	32004
606.98969	32057
607.24615	32403
607.50262	32632
607.75909	32215
608.0155	32390
608.27197	32604
608.52844	32367
608.78485	32327
609.04132	32261
609.29773	32632
609.55414	32184
609.81055	32454
610.06696	32961
610.32336	32764
610.57977	33148
610.83618	33063
611.09259	33051
611.349	32648
611.60535	32809
611.86176	32884
612.1181	33092
612.37445	33267
612.63086	33143
612.88721	32586
613.14355	33188
613.3999	33564
613.65625	33044
613.91254	33565
614.16888	33246
614.42523	33509
614.68152	33297
614.93787	33870
615.19415	33389
615.45044	33567
615.70673	33705
615.96307	33746
616.21936	33781
616.47559	33634
616.73187	33304
616.98816	33547
617.24445	33915
617.50067	33385
617.75696	33550
618.01318	33694
618.26941	33901
618.5257	33438
618.78192	33702
619.03815	33962
619.29437	34335
619.55054	33918
619.80676	34188
620.06299	33785
620.31915	33964
620.57538	34280
620.83154	34271
621.08777	34097
621.34393	34575
621.6001	34143
621.85626	34314
622.11243	34221
622.36859	34313
622.62469	34375
622.88086	34303
623.13702	34613
623.39313	34632
623.64929	34446
623.9054	34884
624.1615	34689
624.4176	34479
624.67371	34308
624.92981	34728
625.18591	34968
625.44202	34576
625.69806	34728
625.95416	34392
626.21021	34639
626.46631	34963
626.72235	34724
626.97839	34973
627.23444	34677
627.49048	34818
627.74652	34577
628.00256	34712
628.25861	34603
628.51465	34660
628.77063	34734
629.02667	34880
629.28265	34815
629.53864	34733
629.79462	35256
630.0506	34925
630.30658	35107
630.56256	34797
630.81854	35120
631.07452	35337
631.33044	34987
631.58643	35029
631.84235	35053
632.09833	35196
632.35425	35270
632.61017	34985
632.86609	35006
633.12201	35143
633.37793	35097
633.63385	35148
633.88977	34779
634.14563	35142
634.40155	35090
634.65741	35253
634.91327	34666
635.16919	34952
635.42505	34952
635.68091	34963
635.93677	35110
636.19257	35033
636.44843	35139
636.70428	34580
636.96008	35207
637.21594	34478
637.47174	35264
637.72754	35271
637.9834	35099
638.2392	35099
638.495	35105
638.75073	34966
639.00653	35126
639.26233	34771
639.51807	35013
639.77386	35025
640.0296	35212
640.2854	34832
640.54114	35163
640.79688	34964
641.05261	34966
641.30835	34429
641.56409	35154
641.81976	35185
642.0755	35045
642.33118	34954
642.58691	34732
642.84259	34779
643.09827	34557
643.354	34567
643.60968	34856
643.86536	35048
644.12097	34992
644.37665	34671
644.63232	34782
644.88794	34840
645.14362	34520
645.39923	34328
645.65485	34154
645.91046	34340
646.16608	34830
646.42169	34514
646.67731	34694
646.93292	34653
647.18854	34396
647.44409	34224
647.69971	34308
647.95526	34379
648.21082	34247
648.46637	34086
648.72192	34149
648.97748	33998
649.23303	34144
649.48859	34171
649.74414	33830
649.99963	34174
650.25519	33844
650.51068	33984
650.76617	33898
651.02167	34122
651.27722	33911
651.53265	33864
651.78815	33675
652.04364	33714
652.29913	33764
652.55457	33436
652.81006	33537
653.06549	33159
653.32092	33109
653.57635	33783
653.83185	33592
654.08722	33656
654.34265	33385
654.59808	33412
654.85352	32995
655.10889	33207
655.36432	32971
655.61969	33063
655.87506	32651
656.13043	32985
656.3858	32817
656.64117	33011
656.89655	32679
657.15192	32765
657.40729	33092
657.6626	32608
657.91791	32895
658.17328	32811
658.42859	32416
658.6839	32716
658.93921	32543
659.19452	32540
659.44983	32234
659.70508	32350
659.96039	32379
660.2157	32136
660.47095	32232
660.7262	31844
660.98145	32089
661.23669	32302
661.49194	31895
661.74719	31755
662.00244	31636
662.25769	31871
662.51288	31728
662.76813	31516
663.02332	31528
663.2785	31754
663.53369	31434
663.78894	31345
664.04407	31086
664.29926	31305
664.55444	31085
664.80963	30890
665.06476	31218
665.31995	31159
665.57507	30875
665.8302	31002
666.08533	30912
666.34045	30668
666.59558	30574
666.85071	30721
667.10577	30531
667.3609	30541
667.61597	30615
667.87109	30083
668.12616	30464
668.38123	30378
668.63629	30310
668.89136	30265
669.14642	30022
669.40149	29985
669.65649	30246
669.91156	29717
670.16656	29927
670.42157	29735
670.67664	29718
670.93164	29810
671.18665	29705
671.44159	29719
671.69659	29602
671.9516	29583
672.20654	29148
672.46155	29153
672.71649	29461
672.97144	29070
673.22638	29097
673.48132	29055
673.73627	28906
673.99121	28811
674.24615	28722
674.50104	28663
674.75598	28472
675.01086	28313
675.26575	28579
675.52063	28075
675.77551	28472
676.0304	28207
676.28528	28149
676.54016	27800
676.79498	27607
677.04987	27885
677.30469	27966
677.55957	28167
677.81439	27745
678.06921	27913
678.32404	27884
678.5788	27549
678.83362	27547
679.08844	26983
679.3432	27495
679.59802	27398
679.85278	27165
680.10754	27076
680.3623	26889
680.61707	26991
680.87183	26936
681.12659	26641
681.38129	26607
681.63605	26336
681.89075	26651
682.14545	26267
682.40021	26376
682.65491	26343
682.90961	26340
683.16425	26241
683.41895	26069
683.67365	25806
683.92828	25889
684.18298	25884
684.43762	25831
684.69226	25677
684.9469	25649
685.20154	25474
685.45618	25617
685.71082	25362
685.96539	25325
686.22003	25237
686.47461	25286
686.72919	25093
686.98376	25285
687.23834	25115
687.49292	24458
687.7475	24616
688.00208	24726
688.25659	24453
688.51117	24519
688.76569	24354
689.02026	24484
689.27478	24238
689.5293	23976
689.78381	24240
690.03827	24068
690.29279	23488
690.5473	23907
690.80176	23747
691.05621	23586
691.31073	23512
691.56519	23409
691.81964	23274
692.0741	23456
692.32849	23358
692.58295	23167
692.8374	23374
693.0918	23012
693.34619	22870
693.60065	22607
693.85504	22687
694.10944	22476
694.36377	22875
694.61816	22331
694.87256	22380
695.12689	22553
695.38129	22668
695.63562	22263
695.88995	22141
696.14429	22058
696.39862	21882
696.65295	21944
696.90729	21739
697.16156	21736
697.41589	21708
697.67017	21709
697.92444	21505
698.17871	21511
698.43298	21533
698.68726	21355
698.94153	21335
699.1958	21018
699.45001	20954
699.70428	20871
699.9585	20943
700.21271	20775
700.46692	20700
700.72113	20581
700.97534	20805
701.22955	20556
701.4837	20535
701.73792	20002
701.99207	20195
702.24622	20093
702.50037	20006
702.75452	19779
703.00867	19787
703.26282	19589
703.51697	19755
703.77106	19607
704.02521	19784
704.2793	19348
704.53339	19376
704.78748	19151
705.04156	19025
705.29565	19259
705.54974	18732
705.80377	19006
706.05786	19174
706.31189	18715
706.56592	18669
706.81995	18444
707.07397	18300
707.328	18264
707.58203	18769
707.83606	18148
708.09003	18057
708.34406	18029
708.59802	17900
708.85199	17740
709.10596	17466
709.35992	17684
709.61389	17691
709.8678	17460
710.12177	17510
710.37567	17332
710.62964	17281
710.88354	17241
711.13745	17139
711.39136	17185
711.64526	16968
711.89917	16997
712.15302	16992
712.40692	16745
712.66077	16836
712.91461	16835
713.16846	16531
713.4223	16574
713.67615	16424
713.92999	16108
714.18378	16217
714.43762	16088
714.69141	16156
714.94525	16248
715.19904	16179
715.45282	16072
715.7066	15909
715.96033	16039
716.21411	15622
716.46783	15690
716.72162	15776
716.97534	15449
717.22906	15419
717.48279	15487
717.73651	15349
717.99023	15123
718.24396	15288
718.49762	14967
718.75134	14996
719.005	14913
719.25867	14848
719.51233	15056
719.76599	15041
720.01965	14826
720.27325	14954
720.52692	14606
720.78052	14684
721.03418	14512
721.28778	14469
721.54138	14515
721.79498	14372
722.04858	14312
722.30212	14141
722.55573	14248
722.80927	13902
723.06281	14045
723.31641	14137
723.56995	13854
723.82349	13996
724.07697	13867
724.33051	13500
724.58405	13688
724.83752	13650
725.091	13197
725.34454	13542
725.59802	13455
725.85144	13309
726.10492	13248
726.3584	13382
726.61182	13321
726.8653	13288
727.11871	13131
727.37213	13038
727.62555	12840
727.87897	13043
728.13239	12739
728.3858	12818
728.63916	12757
728.89258	12451
729.14594	12513
729.39929	12663
729.65265	12149
729.90601	12290
730.15936	12329
730.41266	12229
730.66602	12139
730.91931	11955
731.17267	11977
731.42596	11885
731.67926	12010
731.93256	11745
732.18579	11542
732.43909	11628
732.69232	11830
732.94562	11430
733.19885	11488
733.45209	11389
733.70532	11354
733.95856	11472
734.21179	11162
734.46497	11203
734.7182	11100
734.97137	10975
735.22455	10789
735.47772	10867
735.7309	10828
735.98407	10893
736.23724	10632
736.49036	10505
736.74353	10504
736.99664	10563
737.24976	10408
737.50287	10486
737.75598	10377
738.00909	10245
738.26221	10148
738.51526	10176
738.76837	10045
739.02142	9912
739.27448	9828
739.52753	9853
739.78058	10009
740.03363	9606
740.28662	9576
740.53967	9806
740.79266	9406
741.04565	9447
741.29865	9536
741.55164	9629
741.80463	9488
742.05762	9169
742.31055	9200
742.56354	9335
742.81647	9081
743.0694	9114
743.32233	8892
743.57526	8748
743.82819	9078
744.08105	8611
744.33398	8592
744.58685	8818
744.83978	8505
745.09265	8533
745.34552	8551
745.59839	8452
745.8512	8658
746.10406	8272
746.35687	8390
746.60974	8205
746.86255	8386
747.11536	8182
747.36816	8275
747.62091	8081
747.87372	8074
748.12653	7904
748.37927	7942
748.63202	8079
748.88477	7832
749.13751	7838
749.39026	7723
749.64301	7750
749.89569	7553
750.14844	7606
750.40112	7573
750.65381	7392
750.90649	7448
751.15918	7459
751.41187	7314
751.66455	7128
751.91718	7280
752.16986	7188
752.42249	7216
752.67511	7089
752.92773	7015
753.18036	6921
753.43292	6977
753.68555	6942
753.93811	6958
754.19073	6731
754.4433	6791
754.69586	6866
754.94843	6784
755.20093	6756
755.45349	6723
755.70599	6720
755.95856	6469
756.21106	6502
756.46356	6494
756.71606	6471
756.96857	6322
757.22101	6336
757.47351	6258
757.72595	6246
757.97845	6269
758.2309	6243
758.48334	6092
758.73572	6081
758.98816	6115
759.2406	5937
759.49298	5921
759.74536	5814
759.9978	5967
760.25018	5906
760.5025	5835
760.75488	5690
761.00726	5793
761.25958	5759
761.51196	5640
761.76428	5633
762.0166	5832
762.26892	5486
762.52118	5519
762.7735	5449
763.02582	5314
763.27808	5345
763.53033	5361
763.78259	5386
764.03485	5270
764.28711	5216
764.53937	5225
764.79156	5097
765.04376	5342
765.29602	5124
765.54822	5292
765.80042	5123
766.05261	5168
766.30475	4988
766.55695	5084
766.80908	4933
767.06122	4994
767.31342	4906
767.56549	4866
767.81763	4666
768.06976	4823
768.3219	4874
768.57397	4732
768.82605	4806
769.07813	4620
769.3302	4753
769.58228	4607
769.83435	4601
770.08643	4576
770.33844	4458
770.59045	4499
770.84247	4595
771.09448	4473
771.3465	4419
771.59851	4554
771.85052	4367
772.10248	4399
772.35443	4242
772.60645	4194
772.8584	4183
773.11029	4133
773.36224	4167
773.6142	4093
773.86609	4215
774.11798	4040
774.36993	4056
774.62183	4041
774.87372	3862
775.12555	4035
775.37744	3929
775.62927	3888
775.88116	3846
776.133	3957
776.38483	3851
776.63666	3834
776.88843	3587
777.14026	3784
777.39203	3656
777.64386	3750
777.89563	3749
778.1474	3507
778.39917	3571
778.65094	3561
778.90265	3626
779.15442	3494
779.40613	3588
779.65784	3467
779.90955	3485
780.16125	3457
780.41296	3449
780.66461	3471
780.91632	3306
781.16797	3270
781.41962	3332
781.67126	3323
781.92291	3227
782.17456	3244
782.42615	3141
782.6778	3138
782.92938	3185
783.18097	3137
783.43256	3139
783.68414	3152
783.93567	3167
784.18726	3139
784.43878	3141
784.69037	2982
784.94189	2927
785.19342	2975
785.44495	3015
785.69641	2864
785.94794	2992
786.1994	2909
786.45087	2876
786.70233	2854
786.9538	2887
787.20526	2811
787.45673	2821
787.70813	2750
787.95959	2793
788.211	2698
788.4624	2722
788.71381	2715
788.96515	2655
789.21655	2628
789.46796	2647
789.7193	2528
789.97064	2596
790.22198	2508
790.47333	2562
790.72467	2508
790.97595	2554
791.22729	2586
791.47858	2541
791.72986	2520
791.98114	2484
792.23242	2425
792.48364	2491
792.73492	2418
792.98615	2375
793.23743	2385
793.48865	2491
793.73987	2348
793.99103	2380
794.24225	2343
794.49347	2334
794.74463	2286
794.99579	2239
795.24695	2291
795.49811	2196
795.74927	2108
796.00037	2190
796.25153	2242
796.50262	2224
796.75372	2138
797.00482	2163
797.25592	2170
797.50702	2106
797.75806	2073
798.00916	2045
798.26019	2100
798.51123	2030
798.76227	2095
799.01331	2025
799.26428	1935
799.51532	1962
799.7663	1953
800.01727	2011
800.26825	1938
800.51923	1949
800.7702	1974
801.02118	1895
801.27209	2002
801.52301	1968
801.77393	1940
802.02484	1965
802.27576	1860
802.52667	1924
802.77753	1851
803.02844	1801
803.2793	1855
803.53015	1830
803.78101	1820
804.03186	1744
804.28265	1720
804.53351	1769
804.7843	1772
805.0351	1773
805.28589	1831
805.53668	1781
805.78748	1742
806.03821	1790
806.28894	1689
806.53973	1683
806.79047	1631
807.0412	1682
807.29187	1694
807.5426	1660
807.79327	1628
808.04401	1645
808.29468	1610
808.54535	1641
808.79602	1559
809.04663	1560
809.2973	1526
809.54791	1567
809.79852	1537
810.04913	1591
810.29974	1547
810.55035	1533
810.80096	1563
811.05151	1581
811.30206	1557
811.55267	1475
811.80322	1517
812.05371	1515
812.30426	1503
812.55481	1563
812.8053	1468
813.05579	1518
813.30627	1495
813.55676	1510
813.80725	1396
814.05768	1393
814.30817	1406
814.55859	1409
814.80902	1452
815.05945	1390
815.30988	1341
815.56024	1369
815.81067	1367
816.06104	1360
816.3114	1366
816.56177	1388
816.81213	1386
817.0625	1393
817.31281	1287
817.56317	1337
817.81348	1310
818.06378	1320
818.31409	1321
818.56439	1320
818.81464	1285
819.06494	1296
819.31519	1321
819.56543	1331
819.81567	1212
820.06592	1292
820.31616	1312
820.56635	1321
820.81653	1257
821.06671	1269
821.31689	1200
821.56708	1214
821.81726	1267
822.06744	1256
822.31757	1223
822.56769	1158
822.81781	1166
823.06793	1198
823.31805	1260
823.56812	1225
823.81824	1162
824.0683	1159
824.31836	1166
824.56842	1125
824.81848	1163
825.06848	1159
825.31854	1113
825.56854	1138
825.81854	1158
826.06854	1162
826.31854	1121
826.56854	1096
826.81848	1168
827.06848	1108
827.31842	1083
827.56836	1088
827.8183	1085
828.06818	1023
828.31812	1073
828.56799	1122
828.81787	1039
829.06775	1039
829.31763	1106
829.5675	979
829.81738	1033
830.0672	1066
830.31702	1041
830.56683	1094
830.81665	1023
831.06647	1027
831.31628	1055
831.56604	1002
831.8158	1004
832.06555	1015
832.31531	1010
832.56506	1031
832.81482	1015
833.06451	971
833.31421	976
833.56396	951
833.8136	1006
834.06329	1014
834.31299	946
834.56262	1025
834.81232	935
835.06195	963
835.31158	967
835.56122	1017
835.81079	982
836.06042	1002
836.31	940
836.55957	970
836.80914	933
837.05872	959
837.30829	923
837.5578	937
837.80737	910
838.05688	907
838.3064	899
838.55591	931
838.80536	920
839.05487	921
839.30432	924
839.55377	902
839.80322	904
840.05267	894
840.30212	918
840.55151	976
840.80096	892
841.05035	921
841.29974	876
841.54913	890
841.79852	819
842.04785	869
842.29724	872
842.54657	865
842.7959	846
843.04523	924
843.29449	877
843.54382	867
843.79309	867
844.04236	876
844.29169	790
844.54089	859
844.79016	825
845.03943	856
845.28864	825
845.53784	822
845.78705	797
