Date and Time:                Sun Apr 14 16:18:04.365 2024
Software Version:             4.30.30000.0
Temperature (C):              -90
Model:                        DU971P_UVB
Data Type:                    Counts
Acquisition Mode:             Single Scan
Trigger Mode:                 Internal
Exposure Time (secs):         1
Readout Mode:                 Full Vertical Binning
Horizontal binning:           1
Extended Dynamic Range:       off
Horizontally flipped:         false
Vertical Shift Speed (usecs): 9.68
Pixel Readout Rate (MHz):     3
Baseline Clamp:               ON
Clock Amplitude:              Normal
Output Amplifier:             Conventional
Serial Number:                20367
Pre-Amplifier Gain:           4x
Spurious Noise Filter Mode:   No Filter
Photon counted:               false
Data Averaging Filter Mode:   No Filter
SR193i:
Serial Number:                SR-2646
Wavelength (nm):              650
Grating Groove Density (l/mm):300
Grating Blaze:                500nm
Input Side Slit Width (um):   1000



437.86981	9522
438.12854	10225
438.3873	10551
438.64606	11263
438.90482	11961
439.16354	12510
439.4223	13183
439.68103	13705
439.93979	14189
440.19852	14754
440.45724	15221
440.716	15650
440.97473	16078
441.23346	16759
441.49219	17449
441.75092	17800
442.00964	18242
442.26837	18886
442.5271	19267
442.78583	19939
443.04456	20440
443.30325	20945
443.56198	21425
443.82068	21927
444.07941	22222
444.3381	22710
444.59683	22947
444.85553	23785
445.11423	24021
445.37292	24683
445.63165	25106
445.89035	25134
446.14905	25846
446.40771	26037
446.66641	26967
446.92511	27001
447.18381	27348
447.4425	27484
447.70117	28253
447.95987	28757
448.21854	28934
448.47723	29471
448.7359	29450
448.99457	29596
449.25327	30158
449.51193	30534
449.7706	30444
450.02927	30448
450.28793	30046
450.5466	29886
450.80527	29673
451.0639	29274
451.32257	28694
451.58124	27744
451.83987	27406
452.09854	27003
452.35718	26360
452.61584	26118
452.87448	25782
453.13312	25350
453.39175	24526
453.65042	24591
453.90906	24115
454.16769	23624
454.42633	23704
454.68494	23370
454.94357	22890
455.20221	22655
455.46082	22334
455.71945	22235
455.97809	22085
456.23669	21713
456.4953	21467
456.75394	21072
457.01254	21253
457.27115	21315
457.52975	20698
457.78836	20844
458.04697	20790
458.30557	20818
458.56418	20432
458.82275	20693
459.08136	20554
459.33997	20547
459.59854	20437
459.85715	20544
460.11572	20375
460.3743	20266
460.6329	20308
460.89148	20370
461.15005	20131
461.40863	20979
461.66721	20369
461.92578	20271
462.18433	20612
462.4429	20515
462.70148	20721
462.96002	20797
463.2186	20762
463.47714	21089
463.73572	21101
463.99426	21009
464.25281	21391
464.51135	21420
464.7699	21343
465.02844	21448
465.28699	21924
465.54553	21964
465.80408	22033
466.06259	21751
466.32114	22454
466.57968	22410
466.8382	22617
467.09671	22901
467.35526	23219
467.61377	23278
467.87228	23614
468.1308	23477
468.38931	23567
468.64783	24031
468.90634	24290
469.16486	24603
469.42334	24569
469.68185	24767
469.94034	24854
470.19885	25230
470.45734	25444
470.71582	25707
470.97433	25712
471.23282	26094
471.4913	26189
471.74979	26468
472.00827	26552
472.26672	26787
472.52521	26952
472.78369	27351
473.04214	27398
473.30063	27580
473.55908	27771
473.81757	27918
474.07602	27937
474.33447	28412
474.59293	28590
474.85138	28783
475.10983	28801
475.36829	28817
475.62674	29506
475.88516	29374
476.14362	29620
476.40204	29491
476.66049	29717
476.91891	30174
477.17734	29913
477.43579	30186
477.69421	30198
477.95264	30640
478.21106	30626
478.46945	30956
478.72787	30794
478.9863	31158
479.24469	30975
479.50311	31495
479.76151	31233
480.01993	31419
480.27832	31816
480.53671	31627
480.7951	32062
481.0535	31552
481.31189	31766
481.57028	31971
481.82867	32086
482.08704	32457
482.34543	32480
482.60379	32416
482.86218	32478
483.12054	32414
483.37891	32637
483.63727	32292
483.89563	32402
484.15399	31938
484.41235	32486
484.67072	32884
484.92908	32977
485.18741	32680
485.44577	32449
485.7041	32936
485.96243	32727
486.22079	32714
486.47913	32973
486.73746	32596
486.99579	32925
487.25412	32647
487.51242	33202
487.77075	32846
488.02908	33213
488.28738	32829
488.54572	32841
488.80402	33136
489.06232	33335
489.32062	33277
489.57892	33208
489.83722	33685
490.09552	33328
490.35382	33145
490.61212	33241
490.87039	33311
491.12869	33396
491.38696	33416
491.64526	33393
491.90353	33659
492.1618	33611
492.42007	33621
492.67834	33445
492.93661	33926
493.19489	33511
493.45313	33414
493.7114	33424
493.96964	33513
494.22791	33380
494.48615	33879
494.74438	33693
495.00262	33765
495.26086	33753
495.5191	33708
495.77734	33608
496.03558	34066
496.29379	33452
496.55203	33699
496.81024	34045
497.06848	33837
497.32669	33905
497.5849	34030
497.84311	33898
498.10132	34331
498.35953	33762
498.61771	33847
498.87592	34495
499.13412	34040
499.3923	34077
499.65048	33983
499.90869	34094
500.16687	34055
500.42505	33924
500.68323	33860
500.94141	34154
501.19958	34315
501.45773	34081
501.71591	34074
501.97406	34028
502.23224	34132
502.49039	34056
502.74854	34113
503.00668	34289
503.26483	34007
503.52298	34219
503.78113	33966
504.03925	33977
504.29739	34250
504.55551	34144
504.81366	34194
505.07178	33920
505.3299	34044
505.58801	33839
505.84613	34233
506.10425	34551
506.36237	34133
506.62045	34060
506.87857	34010
507.13666	33908
507.39478	34049
507.65286	33822
507.91095	34225
508.16904	33757
508.42712	33636
508.68521	33977
508.94327	34012
509.20135	34235
509.45941	33667
509.7175	33829
509.97556	33942
510.23361	33875
510.49167	33626
510.74973	33838
511.00778	34131
511.26584	33733
511.5239	33690
511.78192	33929
512.03998	33919
512.29797	33501
512.55603	33531
512.81409	33634
513.07208	33651
513.33014	33413
513.58813	33645
513.84613	33529
514.10419	33571
514.36218	33673
514.62018	33445
514.87817	33384
515.13617	33025
515.39417	33192
515.65216	33004
515.91016	33165
516.16815	33155
516.42615	32998
516.68408	33106
516.94208	32858
517.20007	32870
517.45801	32880
517.716	33121
517.97394	33043
518.23193	33216
518.48987	32758
518.7478	32416
519.0058	32374
519.26373	32432
519.52167	32406
519.7796	32491
520.03754	32312
520.29547	32010
520.55341	32227
520.81134	32321
521.06927	32299
521.32715	32546
521.58508	32225
521.84302	31833
522.10089	31944
522.35883	32111
522.6167	31669
522.87463	31948
523.13251	32092
523.39038	31696
523.64825	31878
523.90619	32102
524.16406	31772
524.42194	31688
524.67981	31291
524.93768	31710
525.19556	31679
525.45337	31228
525.71124	30946
525.96912	31280
526.22699	31296
526.4848	31379
526.74268	31043
527.00049	31047
527.25836	30965
527.51617	31023
527.77399	30626
528.0318	30585
528.28967	30981
528.54749	30796
528.8053	30770
529.06311	30297
529.32092	30657
529.57874	30563
529.83655	30685
530.0943	30172
530.35211	30424
530.60992	30184
530.86768	30044
531.12549	30164
531.38324	30110
531.64105	29927
531.8988	29577
532.15656	30088
532.41437	29687
532.67212	29548
532.92987	29378
533.18762	29903
533.44537	29444
533.70313	29662
533.96088	29309
534.21857	29083
534.47632	28974
534.73407	29221
534.99182	29185
535.24951	29018
535.50726	29252
535.76495	28700
536.02264	29016
536.2804	28907
536.53809	28696
536.79578	28954
537.05347	28838
537.31116	28384
537.56885	28773
537.82654	28422
538.08423	28580
538.34192	28470
538.59961	28213
538.85724	28214
539.11493	28174
539.37262	28567
539.63025	28231
539.88794	27994
540.14557	27663
540.4032	27958
540.66089	27630
540.91852	27910
541.17615	27852
541.43378	27690
541.69141	27906
541.94904	27682
542.20667	27452
542.46429	27584
542.72186	27272
542.97949	27219
543.23712	27242
543.49469	27162
543.75232	27231
544.00989	27422
544.26752	27517
544.52509	27188
544.78265	26843
545.04022	26909
545.29779	26609
545.55542	27091
545.81293	26943
546.0705	26572
546.32806	26776
546.58563	26670
546.8432	26354
547.10071	26690
547.35828	26361
547.61584	26484
547.87335	26296
548.13086	26225
548.38843	26298
548.64594	26414
548.90344	26335
549.16095	26557
549.41846	26522
549.67596	26275
549.93347	26155
550.19098	26087
550.44849	26146
550.70599	25909
550.96344	25888
551.22095	25878
551.47845	26296
551.7359	26068
551.99335	25887
552.25085	26017
552.5083	25784
552.76575	25825
553.02319	25634
553.28064	25798
553.53809	25626
553.79553	25499
554.05298	25755
554.31042	25546
554.56787	25571
554.82526	25718
555.0827	25221
555.34015	25503
555.59753	25419
555.85492	25621
556.11237	25814
556.36975	25721
556.62714	25593
556.88452	25295
557.14191	25327
557.39929	25735
557.65668	25270
557.91406	25641
558.17145	25460
558.42883	25186
558.68616	25159
558.94354	25107
559.20087	25174
559.45825	25042
559.71558	25364
559.9729	25315
560.23029	24859
560.48761	25317
560.74493	25216
561.00226	25259
561.25958	24987
561.51691	24999
561.77423	24967
562.03149	25117
562.28882	24893
562.54614	24908
562.80341	25122
563.06067	24762
563.31799	24999
563.57526	24902
563.83252	24931
564.08984	25073
564.34711	24867
564.60437	24900
564.86163	24804
565.1189	25162
565.3761	24838
565.63336	24959
565.89063	24950
566.14783	24860
566.40509	24690
566.66229	24939
566.91956	24927
567.17676	24815
567.43396	24775
567.69116	25033
567.94843	25054
568.20563	24733
568.46283	24936
568.71997	24511
568.97717	25116
569.23438	24810
569.49158	24997
569.74872	24742
570.00592	24813
570.26306	25055
570.52026	24871
570.7774	24944
571.03455	24910
571.29169	24705
571.54883	25004
571.80597	24519
572.06311	25061
572.32025	24668
572.57739	24670
572.83453	24853
573.09161	24846
573.34875	24870
573.60583	24859
573.86298	24915
574.12006	24824
574.37714	24798
574.63422	24929
574.89136	25191
575.14844	24943
575.40552	24832
575.6626	25213
575.91962	24792
576.1767	24922
576.43378	25336
576.6908	24868
576.94788	24974
577.2049	24779
577.46198	25293
577.71899	25121
577.97601	25068
578.23303	24902
578.49005	24983
578.74707	24849
579.00409	25096
579.26111	25145
579.51813	25028
579.77515	25332
580.0321	25160
580.28912	25526
580.54608	25061
580.8031	25207
581.06006	25183
581.31702	25420
581.57397	25491
581.83093	25438
582.08789	25474
582.34485	25491
582.60181	25495
582.85876	25454
583.11566	25539
583.37262	25488
583.62958	25443
583.88647	25546
584.14337	25507
584.40033	25634
584.65723	25374
584.91412	25734
585.17102	25938
585.42792	25493
585.68481	25941
585.94171	26004
586.19861	25963
586.45544	25720
586.71234	25763
586.96918	26069
587.22607	25778
587.48291	25990
587.73981	26013
587.99664	26027
588.25348	26003
588.51031	26010
588.76715	26106
589.02399	25884
589.28082	26175
589.5376	26359
589.79443	26359
590.05127	26211
590.30804	26315
590.56482	26354
590.82166	26198
591.07843	26558
591.33521	26537
591.59198	26463
591.84875	26307
592.10553	26213
592.3623	26498
592.61908	26057
592.87579	26791
593.13257	26870
593.38934	26404
593.64606	26602
593.90277	26741
594.15955	26903
594.41626	26609
594.67297	26680
594.92969	26718
595.1864	27003
595.44312	26641
595.69983	26956
595.95648	27069
596.2132	26697
596.46991	26846
596.72656	27084
596.98322	26904
597.23993	26747
597.49658	26826
597.75323	27138
598.00989	27262
598.26654	27154
598.52319	27336
598.77985	27452
599.0365	27820
599.29309	27513
599.54974	27643
599.80634	27684
600.06299	27495
600.31958	27522
600.57617	27628
600.83276	27541
601.08936	27579
601.34595	27877
601.60254	27340
601.85913	27814
602.11572	27876
602.37225	27666
602.62885	28186
602.88544	27885
603.14197	28051
603.3985	28195
603.65503	28297
603.91162	28064
604.16815	28149
604.42468	28067
604.68121	28260
604.93768	28285
605.19421	28092
605.45074	27932
605.70721	28313
605.96375	28496
606.22021	28423
606.47668	28264
606.73322	28378
606.98969	28473
607.24615	28478
607.50262	29026
607.75909	28467
608.0155	28797
608.27197	29066
608.52844	28822
608.78485	28714
609.04132	28885
609.29773	29004
609.55414	29093
609.81055	28949
610.06696	29044
610.32336	28949
610.57977	29045
610.83618	29120
611.09259	28854
611.349	29437
611.60535	29121
611.86176	29285
612.1181	29075
612.37445	29146
612.63086	29554
612.88721	29475
613.14355	29817
613.3999	29672
613.65625	29713
613.91254	29476
614.16888	29426
614.42523	29868
614.68152	30021
614.93787	29461
615.19415	29991
615.45044	29738
615.70673	29581
615.96307	30061
616.21936	29563
616.47559	30046
616.73187	29755
616.98816	29693
617.24445	30345
617.50067	29980
617.75696	30040
618.01318	29610
618.26941	29848
618.5257	29877
618.78192	29899
619.03815	30072
619.29437	30299
619.55054	30254
619.80676	30081
620.06299	30472
620.31915	30517
620.57538	30213
620.83154	30396
621.08777	30481
621.34393	30663
621.6001	30456
621.85626	30529
622.11243	30541
622.36859	30383
622.62469	30434
622.88086	30438
623.13702	30525
623.39313	30674
623.64929	30581
623.9054	30693
624.1615	30752
624.4176	30695
624.67371	30901
624.92981	30439
625.18591	31032
625.44202	30584
625.69806	30900
625.95416	30949
626.21021	30431
626.46631	30571
626.72235	30971
626.97839	31288
627.23444	31067
627.49048	31015
627.74652	31027
628.00256	31273
628.25861	31159
628.51465	31380
628.77063	30947
629.02667	31060
629.28265	31557
629.53864	31016
629.79462	31111
630.0506	31173
630.30658	31407
630.56256	31204
630.81854	31212
631.07452	31137
631.33044	31356
631.58643	30952
631.84235	31044
632.09833	31138
632.35425	31308
632.61017	31265
632.86609	31183
633.12201	31720
633.37793	31310
633.63385	31117
633.88977	31596
634.14563	31100
634.40155	31452
634.65741	31490
634.91327	30946
635.16919	31484
635.42505	31367
635.68091	31300
635.93677	31031
636.19257	31059
636.44843	31090
636.70428	31428
636.96008	31334
637.21594	30868
637.47174	31128
637.72754	31564
637.9834	31640
638.2392	30954
638.495	31130
638.75073	30698
639.00653	31190
639.26233	31095
639.51807	31461
639.77386	30973
640.0296	31282
640.2854	31455
640.54114	31138
640.79688	30940
641.05261	31106
641.30835	31023
641.56409	30920
641.81976	31155
642.0755	31035
642.33118	31122
642.58691	31063
642.84259	31231
643.09827	31058
643.354	31042
643.60968	30665
643.86536	31045
644.12097	31248
644.37665	30835
644.63232	31293
644.88794	31166
645.14362	30861
645.39923	31107
645.65485	30990
645.91046	30808
646.16608	30615
646.42169	30591
646.67731	30822
646.93292	30504
647.18854	31131
647.44409	30675
647.69971	30405
647.95526	30526
648.21082	30425
648.46637	30606
648.72192	30492
648.97748	30729
649.23303	30227
649.48859	30637
649.74414	30483
649.99963	30301
650.25519	30422
650.51068	30387
650.76617	30301
651.02167	30124
651.27722	30423
651.53265	30549
651.78815	30254
652.04364	29904
652.29913	30280
652.55457	30103
652.81006	30072
653.06549	29918
653.32092	30007
653.57635	29807
653.83185	29654
654.08722	29700
654.34265	29788
654.59808	29661
654.85352	29751
655.10889	29610
655.36432	29346
655.61969	29715
655.87506	29659
656.13043	29547
656.3858	29456
656.64117	29129
656.89655	29416
657.15192	29545
657.40729	29325
657.6626	29507
657.91791	29296
658.17328	29252
658.42859	28968
658.6839	29361
658.93921	29041
659.19452	29433
659.44983	28687
659.70508	28957
659.96039	28910
660.2157	28718
660.47095	28578
660.7262	28862
660.98145	28582
661.23669	28460
661.49194	28489
661.74719	28441
662.00244	28457
662.25769	28412
662.51288	28333
662.76813	28340
663.02332	28490
663.2785	28000
663.53369	28269
663.78894	28240
664.04407	28375
664.29926	28034
664.55444	27890
664.80963	27758
665.06476	27718
665.31995	27843
665.57507	27616
665.8302	27477
666.08533	27454
666.34045	27589
666.59558	27247
666.85071	27780
667.10577	27568
667.3609	27179
667.61597	27396
667.87109	27366
668.12616	26942
668.38123	26999
668.63629	27250
668.89136	26925
669.14642	27041
669.40149	26834
669.65649	26814
669.91156	26670
670.16656	26662
670.42157	26859
670.67664	26608
670.93164	26640
671.18665	26568
671.44159	26272
671.69659	26452
671.9516	26303
672.20654	26302
672.46155	26307
672.71649	25990
672.97144	26314
673.22638	26072
673.48132	25961
673.73627	25993
673.99121	25959
674.24615	26019
674.50104	25760
674.75598	25562
675.01086	25354
675.26575	25655
675.52063	25240
675.77551	25434
676.0304	25487
676.28528	25182
676.54016	25257
676.79498	25127
677.04987	25101
677.30469	24717
677.55957	25033
677.81439	24787
678.06921	24927
678.32404	24683
678.5788	24680
678.83362	24701
679.08844	24681
679.3432	24359
679.59802	24353
679.85278	24449
680.10754	24133
680.3623	24378
680.61707	24396
680.87183	24042
681.12659	24093
681.38129	23830
681.63605	23580
681.89075	23837
682.14545	24014
682.40021	23915
682.65491	23490
682.90961	23479
683.16425	23658
683.41895	23242
683.67365	23265
683.92828	23184
684.18298	23472
684.43762	23134
684.69226	23220
684.9469	23142
685.20154	22971
685.45618	23032
685.71082	22718
685.96539	22686
686.22003	22660
686.47461	22649
686.72919	22603
686.98376	22302
687.23834	22555
687.49292	22295
687.7475	21698
688.00208	22196
688.25659	21894
688.51117	22007
688.76569	21954
689.02026	21940
689.27478	21595
689.5293	21743
689.78381	21542
690.03827	21446
690.29279	21502
690.5473	21476
690.80176	21334
691.05621	21285
691.31073	21512
691.56519	21361
691.81964	21029
692.0741	20910
692.32849	20871
692.58295	20945
692.8374	20710
693.0918	20770
693.34619	20610
693.60065	20447
693.85504	20689
694.10944	20250
694.36377	20322
694.61816	20308
694.87256	20028
695.12689	20057
695.38129	20005
695.63562	19885
695.88995	19751
696.14429	19897
696.39862	19851
696.65295	19606
696.90729	19612
697.16156	19617
697.41589	19497
697.67017	19432
697.92444	19421
698.17871	19115
698.43298	18999
698.68726	19174
698.94153	18963
699.1958	18983
699.45001	18954
699.70428	18897
699.9585	18537
700.21271	18578
700.46692	18442
700.72113	18217
700.97534	18450
701.22955	18296
701.4837	18552
701.73792	18169
701.99207	17889
702.24622	18145
702.50037	17987
702.75452	17958
703.00867	17790
703.26282	17745
703.51697	17253
703.77106	17618
704.02521	17638
704.2793	17411
704.53339	17375
704.78748	17222
705.04156	17197
705.29565	17134
705.54974	17200
705.80377	17034
706.05786	17023
706.31189	17047
706.56592	16812
706.81995	16943
707.07397	16724
707.328	16578
707.58203	16350
707.83606	16364
708.09003	16268
708.34406	16174
708.59802	16171
708.85199	16265
709.10596	15926
709.35992	15978
709.61389	15873
709.8678	15575
710.12177	15762
710.37567	15478
710.62964	15510
710.88354	15521
711.13745	15365
711.39136	15313
711.64526	15358
711.89917	15402
712.15302	15240
712.40692	15143
712.66077	14874
712.91461	14995
713.16846	14910
713.4223	15007
713.67615	14671
713.92999	14934
714.18378	14620
714.43762	14686
714.69141	14742
714.94525	14302
715.19904	14475
715.45282	14200
715.7066	14061
715.96033	14247
716.21411	13914
716.46783	13994
716.72162	13804
716.97534	13912
717.22906	13966
717.48279	13816
717.73651	13800
717.99023	13768
718.24396	13784
718.49762	13832
718.75134	13501
719.005	13687
719.25867	13624
719.51233	13432
719.76599	13646
720.01965	13204
720.27325	13173
720.52692	13183
720.78052	13088
721.03418	13226
721.28778	13124
721.54138	12933
721.79498	13028
722.04858	13035
722.30212	12943
722.55573	12786
722.80927	12781
723.06281	12723
723.31641	12541
723.56995	12349
723.82349	12545
724.07697	12595
724.33051	12397
724.58405	12383
724.83752	12396
725.091	12118
725.34454	12126
725.59802	12198
725.85144	12002
726.10492	11994
726.3584	11933
726.61182	11854
726.8653	11833
727.11871	11821
727.37213	11549
727.62555	11783
727.87897	11543
728.13239	11465
728.3858	11489
728.63916	11424
728.89258	11040
729.14594	11168
729.39929	11377
729.65265	11055
729.90601	11242
730.15936	11008
730.41266	10907
730.66602	11027
730.91931	10935
731.17267	10603
731.42596	10710
731.67926	10843
731.93256	10737
732.18579	10624
732.43909	10309
732.69232	10529
732.94562	10388
733.19885	10436
733.45209	10491
733.70532	10250
733.95856	10301
734.21179	9888
734.46497	9936
734.7182	10034
734.97137	9832
735.22455	9818
735.47772	9685
735.7309	9951
735.98407	9607
736.23724	9691
736.49036	9754
736.74353	9543
736.99664	9443
737.24976	9447
737.50287	9449
737.75598	9429
738.00909	9160
738.26221	9097
738.51526	9198
738.76837	9108
739.02142	8755
739.27448	8941
739.52753	9022
739.78058	8931
740.03363	8818
740.28662	8639
740.53967	8706
740.79266	8764
741.04565	8528
741.29865	8521
741.55164	8417
741.80463	8368
742.05762	8282
742.31055	8302
742.56354	8406
742.81647	8241
743.0694	7942
743.32233	8080
743.57526	8074
743.82819	8057
744.08105	7812
744.33398	7931
744.58685	7867
744.83978	7812
745.09265	7783
745.34552	7535
745.59839	7804
745.8512	7554
746.10406	7549
746.35687	7627
746.60974	7429
746.86255	7535
747.11536	7415
747.36816	7391
747.62091	7324
747.87372	7074
748.12653	7240
748.37927	7146
748.63202	7087
748.88477	7179
749.13751	7088
749.39026	6853
749.64301	6918
749.89569	6714
750.14844	6892
750.40112	6660
750.65381	6713
750.90649	6709
751.15918	6546
751.41187	6740
751.66455	6619
751.91718	6563
752.16986	6392
752.42249	6479
752.67511	6489
752.92773	6312
753.18036	6339
753.43292	6352
753.68555	6166
753.93811	6280
754.19073	6302
754.4433	6053
754.69586	6227
754.94843	6112
755.20093	6029
755.45349	6057
755.70599	5914
755.95856	5883
756.21106	5711
756.46356	5762
756.71606	5744
756.96857	5727
757.22101	5806
757.47351	5587
757.72595	5585
757.97845	5592
758.2309	5517
758.48334	5657
758.73572	5617
758.98816	5524
759.2406	5455
759.49298	5293
759.74536	5347
759.9978	5431
760.25018	5328
760.5025	5332
760.75488	5220
761.00726	5159
761.25958	5277
761.51196	5222
761.76428	5038
762.0166	5147
762.26892	5040
762.52118	5041
762.7735	5045
763.02582	4792
763.27808	5030
763.53033	4741
763.78259	4931
764.03485	5025
764.28711	4844
764.53937	4755
764.79156	4609
765.04376	4708
765.29602	4633
765.54822	4622
765.80042	4695
766.05261	4628
766.30475	4588
766.55695	4383
766.80908	4470
767.06122	4433
767.31342	4424
767.56549	4298
767.81763	4241
768.06976	4480
768.3219	4366
768.57397	4322
768.82605	4204
769.07813	4201
769.3302	4183
769.58228	4142
769.83435	4084
770.08643	4077
770.33844	4175
770.59045	4013
770.84247	4059
771.09448	4111
771.3465	3896
771.59851	3900
771.85052	3945
772.10248	3817
772.35443	3895
772.60645	3925
772.8584	3784
773.11029	3723
773.36224	3717
773.6142	3778
773.86609	3719
774.11798	3619
774.36993	3692
774.62183	3696
774.87372	3583
775.12555	3607
775.37744	3484
775.62927	3528
775.88116	3583
776.133	3442
776.38483	3526
776.63666	3470
776.88843	3382
777.14026	3456
777.39203	3305
777.64386	3330
777.89563	3232
778.1474	3265
778.39917	3383
778.65094	3249
778.90265	3313
779.15442	3192
779.40613	3248
779.65784	3103
779.90955	3139
780.16125	3099
780.41296	3151
780.66461	3056
780.91632	3118
781.16797	2989
781.41962	2952
781.67126	2880
781.92291	3145
782.17456	3019
782.42615	2985
782.6778	2878
782.92938	2771
783.18097	2834
783.43256	2915
783.68414	2915
783.93567	2865
784.18726	2789
784.43878	2748
784.69037	2797
784.94189	2767
785.19342	2825
785.44495	2719
785.69641	2568
785.94794	2780
786.1994	2626
786.45087	2540
786.70233	2567
786.9538	2668
787.20526	2633
787.45673	2439
787.70813	2581
787.95959	2438
788.211	2510
788.4624	2459
788.71381	2483
788.96515	2367
789.21655	2398
789.46796	2389
789.7193	2331
789.97064	2308
790.22198	2420
790.47333	2309
790.72467	2314
790.97595	2360
791.22729	2286
791.47858	2381
791.72986	2293
791.98114	2262
792.23242	2256
792.48364	2188
792.73492	2209
792.98615	2259
793.23743	2174
793.48865	2148
793.73987	2182
793.99103	2122
794.24225	2069
794.49347	2147
794.74463	2097
794.99579	2178
795.24695	2042
795.49811	2016
795.74927	1969
796.00037	2088
796.25153	1964
796.50262	2051
796.75372	2014
797.00482	1974
797.25592	1963
797.50702	1860
797.75806	1943
798.00916	1955
798.26019	1946
798.51123	1925
798.76227	1863
799.01331	1885
799.26428	1817
799.51532	1827
799.7663	1874
800.01727	1860
800.26825	1894
800.51923	1759
800.7702	1802
801.02118	1754
801.27209	1808
801.52301	1790
801.77393	1809
802.02484	1751
802.27576	1762
802.52667	1703
802.77753	1659
803.02844	1723
803.2793	1752
803.53015	1656
803.78101	1703
804.03186	1684
804.28265	1670
804.53351	1653
804.7843	1656
805.0351	1613
805.28589	1590
805.53668	1531
805.78748	1557
806.03821	1603
806.28894	1599
806.53973	1539
806.79047	1556
807.0412	1559
807.29187	1495
807.5426	1497
807.79327	1492
808.04401	1536
808.29468	1503
808.54535	1485
808.79602	1455
809.04663	1496
809.2973	1462
809.54791	1515
809.79852	1475
810.04913	1455
810.29974	1457
810.55035	1423
810.80096	1496
811.05151	1429
811.30206	1348
811.55267	1409
811.80322	1370
812.05371	1393
812.30426	1414
812.55481	1368
812.8053	1452
813.05579	1343
813.30627	1378
813.55676	1332
813.80725	1348
814.05768	1329
814.30817	1295
814.55859	1306
814.80902	1245
815.05945	1383
815.30988	1317
815.56024	1317
815.81067	1368
816.06104	1288
816.3114	1306
816.56177	1217
816.81213	1243
817.0625	1259
817.31281	1272
817.56317	1214
817.81348	1207
818.06378	1234
818.31409	1230
818.56439	1205
818.81464	1166
819.06494	1201
819.31519	1190
819.56543	1196
819.81567	1165
820.06592	1167
820.31616	1153
820.56635	1180
820.81653	1146
821.06671	1229
821.31689	1148
821.56708	1098
821.81726	1107
822.06744	1129
822.31757	1126
822.56769	1102
822.81781	1129
823.06793	1121
823.31805	1093
823.56812	1120
823.81824	1097
824.0683	1092
824.31836	1077
824.56842	1077
824.81848	1060
825.06848	1050
825.31854	1149
825.56854	1033
825.81854	1047
826.06854	1078
826.31854	1025
826.56854	1044
826.81848	1082
827.06848	1094
827.31842	1069
827.56836	1038
827.8183	1033
828.06818	997
828.31812	1018
828.56799	975
828.81787	1015
829.06775	1006
829.31763	1030
829.5675	967
829.81738	1010
830.0672	1000
830.31702	987
830.56683	995
830.81665	941
831.06647	971
831.31628	945
831.56604	975
831.8158	944
832.06555	983
832.31531	989
832.56506	990
832.81482	922
833.06451	953
833.31421	930
833.56396	1020
833.8136	911
834.06329	867
834.31299	918
834.56262	936
834.81232	915
835.06195	938
835.31158	910
835.56122	857
835.81079	891
836.06042	891
836.31	919
836.55957	888
836.80914	944
837.05872	952
837.30829	948
837.5578	882
837.80737	888
838.05688	870
838.3064	832
838.55591	865
838.80536	855
839.05487	822
839.30432	832
839.55377	864
839.80322	818
840.05267	894
840.30212	836
840.55151	847
840.80096	869
841.05035	889
841.29974	847
841.54913	860
841.79852	790
842.04785	833
842.29724	785
842.54657	845
842.7959	864
843.04523	816
843.29449	814
843.54382	820
843.79309	827
844.04236	845
844.29169	875
844.54089	761
844.79016	818
845.03943	786
845.28864	827
845.53784	810
845.78705	842
