Date and Time:                Wed Apr 17 12:18:07.537 2024
Software Version:             4.30.30000.0
Temperature (C):              -90
Model:                        DU971P_UVB
Data Type:                    Counts
Acquisition Mode:             Single Scan
Trigger Mode:                 Internal
Exposure Time (secs):         0.5
Readout Mode:                 Full Vertical Binning
Horizontal binning:           1
Extended Dynamic Range:       off
Horizontally flipped:         false
Vertical Shift Speed (usecs): 9.68
Pixel Readout Rate (MHz):     3
Baseline Clamp:               ON
Clock Amplitude:              Normal
Output Amplifier:             Conventional
Serial Number:                20367
Pre-Amplifier Gain:           4x
Spurious Noise Filter Mode:   No Filter
Photon counted:               false
Data Averaging Filter Mode:   No Filter
SR193i:
Serial Number:                SR-2646
Wavelength (nm):              660
Grating Groove Density (l/mm):300
Grating Blaze:                500nm
Input Side Slit Width (um):   1000



447.98325	7720
448.24188	7755
448.50052	7863
448.75912	7813
449.01776	7999
449.2764	8180
449.535	8247
449.79364	8233
450.05225	8318
450.31085	8168
450.56949	8200
450.82809	8031
451.0867	8074
451.34531	7887
451.60391	7682
451.86252	7684
452.12112	7656
452.37973	7465
452.63834	7182
452.89691	7410
453.15552	6965
453.41412	7045
453.6727	6800
453.9313	7010
454.18988	6908
454.44846	6651
454.70706	6615
454.96564	6419
455.22421	6427
455.48279	6439
455.74136	6445
455.99994	6398
456.25851	6344
456.51709	6273
456.77567	6187
457.03424	6256
457.29279	6053
457.55136	6054
457.80991	6036
458.06848	5951
458.32703	6056
458.5856	5968
458.84415	5859
459.10269	5995
459.36124	5969
459.61978	5955
459.87833	5818
460.13687	5889
460.39542	5988
460.65396	5866
460.91251	5925
461.17102	5904
461.42957	5825
461.68811	5895
461.94662	6187
462.20514	5907
462.46368	6032
462.7222	6104
462.98071	6001
463.23923	6058
463.49777	6157
463.75629	6141
464.01477	6127
464.27328	6344
464.5318	6258
464.79031	6274
465.0488	6305
465.30731	6281
465.56583	6394
465.82431	6424
466.08279	6452
466.34131	6514
466.59979	6676
466.85828	6639
467.11676	6681
467.37524	6721
467.63373	6835
467.89221	6821
468.1507	6913
468.40918	6881
468.66763	6965
468.92612	7066
469.18457	7126
469.44305	7094
469.70151	7191
469.95999	7478
470.21844	7331
470.4769	7542
470.73535	7585
470.9938	7637
471.25226	7600
471.51071	7716
471.76917	7764
472.02759	7873
472.28604	7687
472.54449	7832
472.80292	7887
473.06137	8044
473.31979	8104
473.57822	8106
473.83664	8214
474.09506	8134
474.35352	8134
474.61191	8373
474.87033	8255
475.12875	8527
475.38718	8606
475.6456	8377
475.90399	8428
476.16241	8591
476.42081	8658
476.6792	8746
476.93762	8842
477.19601	8664
477.45441	8583
477.7128	9063
477.97119	8842
478.22958	8996
478.48798	9020
478.74637	8789
479.00473	9063
479.26312	9120
479.52148	9065
479.77988	9246
480.03824	9267
480.2966	9044
480.55496	9007
480.81335	9151
481.07172	9237
481.33005	9107
481.58841	9175
481.84677	9367
482.10513	9355
482.36346	9349
482.62183	9133
482.88016	9236
483.13852	9278
483.39685	9292
483.65518	9301
483.91351	9433
484.17184	9165
484.43018	9316
484.68851	9241
484.94684	9563
485.20517	9382
485.46347	9281
485.7218	9407
485.9801	9371
486.23843	9320
486.49673	9318
486.75504	9341
487.01334	9406
487.27164	9210
487.52994	9383
487.78824	9337
488.04654	9394
488.30484	9233
488.56311	9258
488.82141	9417
489.07968	9256
489.33798	9483
489.59625	9332
489.85452	9356
490.11279	9481
490.37106	9552
490.62933	9244
490.8876	9403
491.14587	9412
491.40411	9253
491.66238	9378
491.92065	9415
492.17889	9474
492.43713	9303
492.69537	9398
492.95364	9263
493.21188	9390
493.47012	9314
493.72833	9261
493.98657	9551
494.24481	9504
494.50305	9372
494.76126	9183
495.0195	9313
495.27771	9598
495.53592	9236
495.79413	9335
496.05234	9382
496.31055	9333
496.56876	9511
496.82697	9442
497.08517	9318
497.34335	9395
497.60156	9388
497.85974	9432
498.11795	9217
498.37613	9433
498.63431	9476
498.89249	9290
499.15067	9337
499.40884	9509
499.66702	9378
499.92517	9319
500.18335	9350
500.44153	9367
500.69968	9534
500.95782	9200
501.216	9297
501.47415	9094
501.7323	9179
501.99045	9375
502.24857	9312
502.50671	9300
502.76486	9473
503.02298	9114
503.28113	9446
503.53925	9239
503.79739	9406
504.05551	9436
504.31363	9199
504.57175	9213
504.82986	9374
505.08798	9284
505.34607	9229
505.60419	9204
505.86227	9288
506.12039	9170
506.37848	9370
506.63657	9212
506.89465	9323
507.15277	9390
507.41083	9109
507.66891	9019
507.927	9186
508.18509	9134
508.44315	9165
508.70123	9131
508.95929	9054
509.21735	9178
509.4754	9069
509.73346	9128
509.99152	9063
510.24957	9093
510.50763	9026
510.76569	9087
511.02371	9120
511.28174	8970
511.53979	9125
511.79782	9021
512.05585	9073
512.3139	9048
512.5719	8846
512.82996	9214
513.08795	8998
513.34595	8893
513.60394	9033
513.862	8911
514.12	8904
514.37799	8783
514.63599	8873
514.89398	9042
515.15198	8805
515.40997	8947
515.66797	8855
515.92596	8862
516.1839	8908
516.44189	8977
516.69989	9051
516.95782	8811
517.21582	8709
517.47375	8779
517.73175	8917
517.98969	8709
518.24762	8817
518.50562	8696
518.76355	8633
519.02148	8657
519.27942	8609
519.53735	8785
519.79529	8685
520.05322	8613
520.31116	8816
520.56909	8659
520.82703	8725
521.0849	8561
521.34283	8602
521.60077	8621
521.85864	8565
522.11658	8396
522.37445	8667
522.63239	8385
522.89026	8411
523.14819	8445
523.40607	8420
523.66394	8461
523.92181	8449
524.17969	8342
524.43756	8433
524.69543	8334
524.95331	8347
525.21118	8289
525.46906	8305
525.72693	8284
525.98474	8259
526.24261	8109
526.50049	8004
526.7583	8288
527.01617	8061
527.27399	8199
527.5318	7902
527.78967	7957
528.04749	8382
528.3053	7948
528.56311	7983
528.82098	8079
529.0788	8028
529.33661	7869
529.59442	7970
529.85217	7674
530.10999	7940
530.3678	8035
530.62561	8008
530.88336	7836
531.14117	7853
531.39893	7780
531.65674	7760
531.91449	7783
532.1723	7644
532.43005	7791
532.68781	7651
532.94556	7610
533.20337	7653
533.46112	7699
533.71887	7473
533.97662	7434
534.23438	7674
534.49207	7677
534.74982	7414
535.00757	7563
535.26532	7541
535.52301	7547
535.78076	7340
536.03845	7339
536.2962	7470
536.55389	7462
536.81158	7468
537.06934	7349
537.32703	7409
537.58472	7325
537.84241	7174
538.1001	7304
538.35779	7248
538.61548	7156
538.87317	7250
539.13086	7154
539.38849	7131
539.64618	7260
539.90387	7092
540.1615	7051
540.41919	7198
540.67682	7080
540.93445	7098
541.19214	6910
541.44977	7054
541.7074	6945
541.96503	6978
542.22266	6725
542.48029	7054
542.73792	6897
542.99554	6973
543.25317	6926
543.5108	6779
543.76837	6855
544.026	6695
544.28363	6817
544.5412	6744
544.79883	6834
545.0564	6753
545.31396	6824
545.57153	6552
545.82916	6644
546.08673	6748
546.3443	6766
546.60187	6689
546.85944	6564
547.117	6581
547.37457	6696
547.63208	6609
547.88965	6648
548.14722	6549
548.40472	6626
548.66229	6557
548.9198	6411
549.17737	6544
549.43488	6476
549.69238	6553
549.94989	6275
550.20746	6457
550.46497	6277
550.72247	6340
550.97998	6511
551.23749	6241
551.49493	6287
551.75244	6287
552.00995	6364
552.2674	6317
552.5249	6220
552.78235	6106
553.03986	6206
553.2973	5975
553.55481	6087
553.81226	6057
554.0697	5999
554.32715	5955
554.58459	6129
554.84204	6142
555.09949	6076
555.35693	6174
555.61438	5895
555.87177	5846
556.12921	5894
556.38666	5973
556.64404	5864
556.90149	5790
557.15887	5766
557.41626	5757
557.67371	5914
557.93109	5748
558.18848	5835
558.44586	5876
558.70325	5742
558.96063	5693
559.21802	5825
559.4754	5730
559.73273	5659
559.99011	5720
560.2475	5681
560.50482	5745
560.76221	5690
561.01953	5698
561.27686	5666
561.53424	5593
561.79156	5571
562.04889	5624
562.30621	5539
562.56354	5661
562.82086	5460
563.07819	5586
563.33551	5659
563.59277	5428
563.8501	5398
564.10742	5444
564.36469	5532
564.62201	5424
564.87927	5409
565.13654	5396
565.39386	5463
565.65112	5368
565.90839	5269
566.16565	5487
566.42291	5314
566.68018	5287
566.93744	5271
567.19464	5088
567.4519	5182
567.70917	5246
567.96637	5239
568.22363	5154
568.48083	5103
568.7381	5166
568.9953	5286
569.2525	5140
569.5097	5015
569.76691	5093
570.02411	4996
570.28131	5063
570.53851	5057
570.79572	5064
571.05292	5090
571.31006	5000
571.56726	5130
571.8244	4917
572.0816	4915
572.33875	5078
572.59589	4976
572.85309	4869
573.11023	4913
573.36737	4839
573.62451	4794
573.88165	4843
574.13879	4805
574.39587	4726
574.65302	4764
574.91016	4838
575.16724	4937
575.42438	4576
575.68146	4719
575.9386	4711
576.19568	4715
576.45276	4599
576.70984	4723
576.96692	4563
577.224	4725
577.48108	4597
577.73816	4617
577.99524	4589
578.25232	4605
578.50934	4663
578.76642	4491
579.02344	4588
579.28052	4454
579.53754	4503
579.79462	4470
580.05164	4629
580.30865	4463
580.56567	4439
580.82269	4478
581.07971	4446
581.33673	4325
581.59369	4488
581.85071	4389
582.10773	4370
582.36469	4466
582.6217	4296
582.87866	4239
583.13562	4386
583.39264	4362
583.6496	4239
583.90656	4182
584.16351	4193
584.42047	4120
584.67743	4098
584.93439	4240
585.19128	4223
585.44824	4245
585.70514	4075
585.9621	4116
586.21899	4155
586.47595	4160
586.73285	4189
586.98975	4106
587.24664	4032
587.50354	4168
587.76044	3940
588.01733	4056
588.27423	4089
588.53113	4054
588.78796	4017
589.04486	3937
589.3017	4008
589.55859	4043
589.81543	3938
590.07233	3951
590.32916	3949
590.586	3894
590.84283	3859
591.09967	3735
591.35651	3904
591.61334	3828
591.87012	3749
592.12695	3803
592.38373	3834
592.64056	3714
592.89734	3696
593.15417	3717
593.41095	3849
593.66772	3694
593.9245	3675
594.18127	3694
594.43805	3878
594.69482	3892
594.9516	3611
595.20837	3662
595.46509	3674
595.72186	3578
595.97858	3552
596.23535	3489
596.49207	3594
596.74878	3609
597.00555	3486
597.26227	3522
597.51898	3537
597.7757	3564
598.03235	3385
598.28906	3492
598.54578	3473
598.80243	3470
599.05914	3462
599.3158	3522
599.57251	3473
599.82916	3520
600.08582	3379
600.34247	3422
600.59918	3362
600.85583	3443
601.11243	3348
601.36908	3440
601.62573	3399
601.88239	3270
602.13898	3366
602.39563	3238
602.65222	3387
602.90881	3296
603.16547	3443
603.42206	3277
603.67865	3316
603.93524	3192
604.19183	3117
604.44843	3180
604.70496	3123
604.96155	3203
605.21814	3132
605.47467	3219
605.73126	3137
605.98779	3122
606.24432	2968
606.50085	3136
606.75739	3146
607.01392	3105
607.27045	3243
607.52698	3110
607.78351	3057
608.04004	3066
608.29651	3037
608.55304	3155
608.80951	3052
609.06604	3050
609.32251	2995
609.57898	3054
609.83545	2982
610.09192	2988
610.34839	3015
610.60486	3020
610.86133	2989
611.11774	2914
611.37421	2884
611.63062	2884
611.88708	2922
612.14349	2892
612.39996	2774
612.65637	2846
612.91278	2886
613.16919	2804
613.4256	2759
613.68201	2913
613.93835	2777
614.19476	2815
614.45117	2728
614.70752	2845
614.96387	2806
615.22028	2878
615.47662	2888
615.73297	2816
615.98932	2769
616.24567	2794
616.50201	2717
616.75836	2681
617.01471	2676
617.271	2648
617.52734	2648
617.78363	2670
618.03998	2690
618.29626	2761
618.55255	2729
618.80884	2746
619.06512	2554
619.32141	2595
619.5777	2579
619.83398	2580
620.09027	2670
620.3465	2733
620.60278	2654
620.85901	2567
621.1153	2544
621.37152	2556
621.62775	2532
621.88397	2567
622.1402	2604
622.39642	2546
622.65265	2456
622.90887	2405
623.16504	2457
623.42126	2530
623.67743	2586
623.93365	2547
624.18982	2466
624.44598	2466
624.70215	2455
624.95831	2396
625.21448	2456
625.47064	2419
625.72681	2362
625.98291	2424
626.23907	2442
626.49524	2330
626.75134	2397
627.00745	2329
627.26355	2406
627.51971	2339
627.77582	2395
628.03192	2352
628.28796	2266
628.54407	2278
628.80017	2277
629.05627	2243
629.31232	2281
629.56836	2290
629.82446	2284
630.08051	2233
630.33655	2303
630.59259	2228
630.84863	2300
631.10468	2251
631.36072	2326
631.6167	2228
631.87274	2170
632.12878	2214
632.38477	2240
632.64075	2211
632.89679	2180
633.15277	2157
633.40875	2130
633.66473	2135
633.92072	2125
634.17664	2139
634.43262	2101
634.6886	2070
634.94452	2071
635.2005	2045
635.45642	2070
635.71234	2095
635.96826	2033
636.22418	2179
636.4801	2049
636.73602	2028
636.99194	2022
637.24786	2009
637.50372	1965
637.75964	1956
638.0155	2022
638.27136	2001
638.52722	1916
638.78314	2017
639.039	2013
639.29486	1980
639.55066	1975
639.80652	1942
640.06238	1922
640.31818	1890
640.57404	1941
640.82983	1937
641.08563	1884
641.34149	1947
641.59729	1864
641.85309	1889
642.10889	1909
642.36462	1898
642.62042	1865
642.87622	1824
643.13196	1809
643.38776	1783
643.64349	1869
643.89923	1750
644.15497	1803
644.41071	1778
644.66644	1740
644.92218	1751
645.17792	1829
645.43359	1791
645.68933	1702
645.94507	1726
646.20074	1773
646.45642	1814
646.7121	1753
646.96777	1694
647.22345	1773
647.47913	1759
647.7348	1787
647.99048	1659
648.24609	1708
648.50177	1735
648.75739	1683
649.01306	1705
649.26868	1581
649.52429	1646
649.77991	1668
650.03552	1640
650.29114	1556
650.54669	1681
650.80231	1604
651.05792	1642
651.31348	1520
651.56903	1585
651.82465	1622
652.0802	1665
652.33575	1549
652.59131	1614
652.84686	1604
653.10236	1567
653.35791	1661
653.61346	1528
653.86896	1590
654.12445	1570
654.38	1516
654.6355	1520
654.89099	1476
655.14648	1494
655.40198	1449
655.65741	1526
655.9129	1488
656.1684	1478
656.42383	1505
656.67926	1569
656.93475	1489
657.19019	1464
657.44562	1469
657.70105	1454
657.95648	1469
658.21191	1382
658.46729	1492
658.72272	1388
658.97809	1434
659.23352	1435
659.48889	1422
659.74426	1396
659.99963	1350
660.255	1367
660.51038	1360
660.76575	1386
661.02106	1349
661.27643	1400
661.53174	1373
661.78711	1410
662.04242	1306
662.29773	1410
662.55304	1373
662.80835	1315
663.06366	1370
663.31897	1351
663.57428	1274
663.82953	1355
664.08484	1270
664.34009	1273
664.59534	1288
664.85059	1316
665.10583	1336
665.36108	1297
665.61633	1373
665.87158	1294
666.12677	1298
666.38202	1245
666.63721	1296
666.89246	1241
667.14764	1267
667.40283	1246
667.65802	1248
667.91321	1208
668.1684	1235
668.42358	1263
668.67871	1253
668.9339	1250
669.18903	1194
669.44415	1173
669.69934	1269
669.95447	1162
670.20959	1183
670.46466	1165
670.71979	1210
670.97491	1132
671.22998	1151
671.48511	1224
671.74017	1183
671.9953	1153
672.25037	1164
672.50543	1229
672.7605	1128
673.0155	1147
673.27057	1171
673.52563	1118
673.78064	1179
674.03571	1198
674.29071	1185
674.54572	1171
674.80072	1154
675.05573	1089
675.31073	1141
675.56573	1109
675.82074	1150
676.07568	1119
676.33069	1141
676.58563	1103
676.84058	1107
677.09552	1097
677.35046	1083
677.60541	1072
677.86035	1124
678.1153	1093
678.37024	1091
678.62512	1067
678.88	1032
679.13495	1029
679.38983	1062
679.64471	1072
679.8996	1036
680.15448	974
680.40936	1046
680.66418	1072
680.91907	1064
681.17389	985
681.42871	1051
681.68359	1042
681.93842	1046
682.19324	1052
682.44806	993
682.70282	995
682.95764	994
683.21246	1016
683.46722	970
683.72205	951
683.97681	1005
684.23157	955
684.48633	977
684.74109	921
684.99585	972
685.25055	979
685.50531	890
685.76001	973
686.01477	951
686.26947	924
686.52417	954
686.77887	988
687.03357	933
687.28827	963
687.54297	926
687.79761	901
688.05231	931
688.30695	898
688.56158	910
688.81628	919
689.07092	941
689.32556	897
689.58014	894
689.83478	954
690.08942	901
690.34399	917
690.59863	914
690.85321	871
691.10779	956
691.36237	877
691.61694	870
691.87152	955
692.1261	838
692.38062	890
692.63519	880
692.88971	857
693.14423	873
693.39874	848
693.65326	872
693.90778	840
694.16229	870
694.41681	867
694.67133	829
694.92578	882
695.18024	818
695.43475	776
695.68921	848
695.94366	853
696.19812	849
696.45258	849
696.70697	803
696.96143	850
697.21582	770
697.47028	838
697.72467	815
697.97906	812
698.23346	785
698.48785	785
698.74225	804
698.99658	795
699.25098	778
699.50531	849
699.7597	790
700.01404	805
700.26837	794
700.52271	745
700.77704	792
701.03137	776
701.28564	732
701.53998	787
701.79425	815
702.04858	788
702.30286	781
702.55713	769
702.8114	750
703.06567	767
703.31989	805
703.57416	812
703.82843	762
704.08264	752
704.33685	687
704.59106	743
704.84528	753
705.09949	741
705.3537	719
705.60791	718
705.86206	754
706.11627	714
706.37042	712
706.62457	748
706.87878	718
707.13293	728
707.38702	714
707.64117	718
707.89532	680
708.14941	690
708.40356	713
708.65765	723
708.91174	748
709.16583	665
709.41992	723
709.67401	691
709.9281	674
710.18213	688
710.43622	710
710.69025	649
710.94427	677
711.19836	696
711.45239	650
711.70636	679
711.96039	724
712.21442	668
712.46838	652
712.72241	692
712.97638	685
713.23035	641
713.48431	662
713.73828	694
713.99225	668
714.24622	593
714.50012	636
714.75409	644
715.008	695
715.2619	649
715.51581	681
715.76971	650
716.02362	638
716.27753	633
716.53143	650
716.78528	633
717.03912	589
717.29303	618
717.54688	636
717.80072	634
718.05457	637
718.30841	627
718.56219	622
718.81604	634
719.06982	605
719.32361	628
719.57745	641
719.83124	626
720.08502	630
720.33875	620
720.59253	586
720.84631	588
721.10004	627
721.35376	610
721.60754	604
721.86127	607
722.11499	634
722.36871	616
722.62238	604
722.8761	611
723.12976	553
723.38348	572
723.63715	655
723.89081	540
724.14447	603
724.39813	592
724.65179	592
724.9054	592
725.15906	567
725.41266	569
725.66626	614
725.91992	615
726.17352	596
726.42706	584
726.68066	574
726.93427	581
727.18781	620
727.44141	585
727.69495	578
727.94849	549
728.20203	579
728.45557	621
728.70911	568
728.96259	559
729.21613	610
729.4696	605
729.72314	566
729.97662	567
730.2301	596
730.48358	554
730.73706	513
730.99048	542
731.24396	566
731.49738	570
731.75079	517
732.00427	518
732.25769	544
732.51105	561
732.76447	519
733.01788	539
733.27124	561
733.52466	551
733.77802	537
734.03137	506
734.28473	543
734.53809	514
734.79144	527
735.0448	506
735.2981	554
735.55145	515
735.80475	539
736.05804	551
736.31134	526
736.56464	544
736.81793	533
737.07117	531
737.32446	531
737.5777	488
737.83093	539
738.08423	553
738.33746	499
738.59064	532
738.84387	531
739.09711	525
739.35028	531
739.60352	484
739.85669	511
740.10986	502
740.36304	496
740.61621	510
740.86938	523
741.1225	518
741.37567	501
741.62878	522
741.8819	511
742.13501	513
742.38812	525
742.64124	476
742.89435	495
743.1474	522
743.40051	497
743.65356	500
743.90662	477
744.15967	481
744.41272	491
744.66577	487
744.91882	488
745.17181	438
745.42487	459
745.67786	499
745.93085	503
746.18384	477
746.43683	460
746.68982	481
746.94275	493
747.19574	463
747.44867	499
747.7016	489
747.95453	446
748.20746	460
748.46039	437
748.71332	463
748.96625	481
749.21912	459
749.47198	486
749.72491	463
749.97778	468
750.23059	483
750.48346	457
750.73633	473
750.98914	471
751.242	452
751.49481	470
751.74762	476
752.00043	474
752.25323	433
752.50604	448
752.75879	461
753.0116	452
753.26434	462
753.51715	482
753.7699	429
754.02264	446
754.27533	458
754.52808	475
754.78082	446
755.03351	445
755.28619	428
755.53888	455
755.79156	442
756.04425	443
756.29694	457
756.54962	480
756.80225	440
757.05493	445
757.30756	456
757.56018	447
757.81281	467
758.06543	450
758.31799	445
758.57062	443
758.82318	426
759.07581	444
759.32837	452
759.58093	418
759.8335	456
760.086	450
760.33856	417
760.59106	451
760.84363	463
761.09613	435
761.34863	453
761.60114	456
761.85364	435
762.10608	442
762.35858	455
762.61102	401
762.86346	437
763.11597	410
763.36841	412
763.62079	425
763.87323	453
764.12567	437
764.37805	444
764.63043	422
764.88287	414
765.13525	423
765.38763	409
765.63995	452
765.89233	392
766.14465	438
766.39703	425
766.64935	386
766.90167	400
767.15399	416
767.40631	398
767.65857	402
767.91089	401
768.16315	444
768.41547	404
768.66772	395
768.91998	411
769.17218	412
769.42444	393
769.6767	418
769.92889	406
770.18109	400
770.43335	418
770.68555	411
770.93768	386
771.18988	389
771.44208	394
771.69421	411
771.94641	408
772.19855	421
772.45068	390
772.70282	410
772.9549	393
773.20703	394
773.45911	371
773.71124	379
773.96332	420
774.21539	389
774.46747	396
774.71954	390
774.97156	377
775.22363	404
775.47565	395
775.72772	395
775.97974	381
776.23175	390
776.4837	388
776.73572	368
776.98773	397
777.23969	422
777.49164	371
777.74359	397
777.99554	397
778.2475	403
778.49945	394
778.75134	373
779.0033	398
779.25519	385
779.50708	393
779.75897	405
780.01086	351
780.2627	380
780.51459	385
780.76642	376
781.01831	400
781.27014	355
781.52197	370
781.7738	372
782.02557	365
782.2774	366
782.52917	365
782.78101	389
783.03278	391
783.28455	391
783.53625	403
783.78802	356
784.03979	347
784.2915	391
784.54321	381
784.79498	377
785.04669	375
785.29834	369
785.55005	380
785.80176	379
786.05341	393
786.30505	374
786.5567	362
786.80835	340
787.06	377
787.31165	372
787.56323	381
787.81488	359
788.06647	397
788.31805	366
788.56964	376
788.82123	364
789.07281	350
789.32434	388
789.57593	354
789.82745	356
790.07898	358
790.33051	354
790.58203	333
790.8335	357
791.08502	341
791.33649	362
791.58795	367
791.83948	379
792.09088	369
792.34235	350
792.59381	375
792.84521	375
793.09668	350
793.34808	382
793.59949	351
793.85089	364
794.10229	363
794.35364	369
794.60504	337
794.85638	355
795.10773	348
795.35907	324
795.61041	356
795.86176	330
796.1131	351
796.36438	363
796.61566	341
796.86694	358
797.11823	366
797.36951	365
797.62079	369
797.87207	346
798.12329	359
798.37451	364
798.62573	360
798.87695	351
799.12817	349
799.37939	353
799.63055	357
799.88177	344
800.13293	352
800.38409	346
800.63525	356
800.88641	355
801.13751	357
801.38867	363
801.63977	324
801.89087	359
802.14197	350
802.39307	352
802.64417	344
802.89526	376
803.1463	351
803.39734	336
803.64844	370
803.89948	360
804.15045	345
804.40149	351
804.65253	344
804.9035	356
805.15448	365
805.40546	348
805.65643	331
805.90741	355
806.15839	358
806.4093	322
806.66028	364
806.91119	338
807.16211	367
807.41302	356
807.66388	327
807.91479	345
808.16565	349
808.41656	347
808.66742	354
808.91827	354
809.16913	363
809.41992	350
809.67078	348
809.92157	364
810.17236	332
810.42316	342
810.67395	345
810.92474	319
811.17554	349
811.42627	340
811.67706	344
811.9278	366
812.17853	337
812.42926	347
812.67993	346
812.93066	335
813.18134	346
813.43201	341
813.68268	333
813.93335	349
814.18402	338
814.43469	360
814.6853	335
814.93597	337
815.18658	319
815.43719	348
815.68781	352
815.93835	337
816.18896	335
816.43951	338
816.69012	309
816.94067	328
817.19122	313
817.44171	337
817.69226	320
817.94275	329
818.1933	332
818.44379	329
818.69427	335
818.94476	336
819.19519	339
819.44568	304
819.69611	327
819.94659	324
820.19702	336
820.44745	319
820.69781	316
820.94824	329
821.19861	345
821.44904	334
821.6994	328
821.94977	317
822.20013	326
822.45044	360
822.70081	326
822.95111	339
823.20142	339
823.45172	335
823.70203	340
823.95233	312
824.20264	341
824.45288	329
824.70313	324
824.95337	350
825.20361	324
825.45386	321
825.7041	329
825.95428	339
826.20453	324
826.45471	339
826.7049	343
826.95508	327
827.2052	348
827.45538	339
827.70551	322
827.95563	308
828.20575	320
828.45587	322
828.70599	325
828.95612	318
829.20618	329
829.45624	335
829.7063	338
829.95636	325
830.20642	345
830.45648	331
830.70648	333
830.95654	305
831.20654	312
831.45654	333
831.70654	332
831.95648	324
832.20648	333
832.45642	311
832.70636	337
832.9563	329
833.20624	334
833.45618	338
833.70612	343
833.95599	324
834.20587	316
834.45575	345
834.70563	311
834.95551	337
835.20532	332
835.4552	324
835.70502	315
835.95483	320
836.20465	330
836.45447	336
836.70428	304
836.95404	316
837.2038	309
837.45361	338
837.70337	308
837.95306	325
838.20282	318
838.45258	305
838.70227	299
838.95197	310
839.20166	329
839.45135	329
839.70105	337
839.95068	327
840.20032	322
840.45001	333
840.69965	337
840.94928	310
841.19885	323
841.44849	323
841.69806	294
841.94763	298
842.19727	309
842.44678	323
842.69635	311
842.94592	304
843.19543	330
843.44495	324
843.69446	339
843.94397	319
844.19348	310
844.44299	315
844.69244	319
844.94189	319
845.19141	314
845.4408	340
845.69025	338
845.9397	305
846.18909	331
846.43854	344
846.68793	318
846.93732	321
847.18665	322
847.43604	310
847.68536	326
847.93475	323
848.18408	310
848.43341	317
848.68274	330
848.93201	321
849.18134	330
849.4306	333
849.67987	290
849.92914	323
850.17841	297
850.42767	299
850.67688	321
850.92609	311
851.17529	331
851.4245	328
851.67371	344
851.92291	318
852.17206	322
852.42126	324
852.67041	317
852.91956	323
853.1687	336
853.41779	310
853.66693	331
853.91602	312
854.1651	325
854.41418	325
854.66327	315
854.91229	320
855.16138	317
855.4104	319
855.65942	308
