Date and Time:                Tue May 21 13:08:52.497 2024
Software Version:             4.30.30000.0
Temperature (C):              -90
Model:                        DU971P_UVB
Data Type:                    Counts
Acquisition Mode:             Single Scan
Trigger Mode:                 Internal
Exposure Time (secs):         1
Readout Mode:                 Full Vertical Binning
Horizontal binning:           1
Extended Dynamic Range:       off
Horizontally flipped:         false
Vertical Shift Speed (usecs): 9.68
Pixel Readout Rate (MHz):     3
Baseline Clamp:               ON
Clock Amplitude:              Normal
Output Amplifier:             Conventional
Serial Number:                20367
Pre-Amplifier Gain:           4x
Spurious Noise Filter Mode:   No Filter
Photon counted:               false
Data Averaging Filter Mode:   No Filter
SR193i:
Serial Number:                SR-2646
Wavelength (nm):              630
Grating Groove Density (l/mm):300
Grating Blaze:                500nm
Input Side Slit Width (um):   1000



417.6445	352
417.9035	357
418.16251	371
418.42151	364
418.68048	323
418.93948	355
419.19846	352
419.45746	348
419.71643	373
419.97543	362
420.23441	359
420.49341	368
420.75238	359
421.01135	351
421.27032	355
421.5293	360
421.78827	367
422.04724	353
422.30621	335
422.56519	366
422.82416	342
423.08313	388
423.34207	392
423.60104	411
423.85999	422
424.11896	445
424.3779	512
424.63687	559
424.89581	572
425.15475	623
425.41373	569
425.67267	615
425.93161	682
426.19055	653
426.44949	658
426.70844	645
426.96738	705
427.22629	761
427.48523	700
427.74417	707
428.00308	734
428.26202	677
428.52094	710
428.77988	741
429.03879	685
429.2977	733
429.55664	725
429.81555	732
430.07446	771
430.33337	807
430.59229	762
430.8512	829
431.11011	775
431.36899	839
431.6279	799
431.88681	791
432.14569	831
432.4046	857
432.66348	864
432.92239	874
433.18127	776
433.44016	863
433.69907	964
433.95795	900
434.21683	938
434.47571	1114
434.73459	1240
434.99347	1494
435.25232	1784
435.5112	2200
435.77008	2534
436.02896	2947
436.28781	3341
436.54669	3772
436.80554	4065
437.06439	4526
437.32327	4980
437.58212	5526
437.84097	5948
438.09982	6305
438.35867	6752
438.61752	7153
438.87637	7465
439.13522	7621
439.39404	8226
439.65289	8512
439.91174	8802
440.17056	8996
440.42941	9344
440.68823	9833
440.94705	10044
441.20587	10593
441.46472	10779
441.72354	11112
441.98236	11670
442.24118	11934
442.5	12149
442.75879	12645
443.01761	12826
443.27643	13333
443.53522	13741
443.79404	14134
444.05283	14402
444.31165	14741
444.57043	15111
444.82922	15372
445.08801	15621
445.34683	15684
445.60562	16108
445.86441	16262
446.12317	16662
446.38196	16761
446.64075	17288
446.89954	17209
447.15829	17794
447.41708	17725
447.67584	18198
447.9346	18258
448.19339	18458
448.45215	19092
448.71091	19087
448.96967	19255
449.22842	19389
449.48718	19757
449.74594	19564
450.00467	19692
450.26343	19444
450.52219	19594
450.78091	19360
451.03967	18934
451.2984	18865
451.55713	18512
451.81589	18612
452.07462	18134
452.33334	18298
452.59207	17893
452.8508	17868
453.1095	17351
453.36823	17441
453.62695	17202
453.88565	17072
454.14438	16848
454.40308	16567
454.6618	16166
454.9205	16224
455.1792	16330
455.4379	16428
455.69659	15954
455.95529	16097
456.21399	15738
456.47269	15540
456.73138	15759
456.99005	15585
457.24875	15602
457.50742	15770
457.76611	15455
458.02478	15511
458.28345	15647
458.54211	15472
458.80078	15538
459.05945	15599
459.31812	15636
459.57678	15603
459.83545	15179
460.09409	15820
460.35275	15689
460.61139	15667
460.87006	15565
461.12869	15694
461.38733	15778
461.64597	15911
461.9046	15895
462.16324	16133
462.42188	16207
462.68051	16386
462.93915	16276
463.19775	16298
463.45639	16538
463.715	16511
463.97363	16652
464.23224	16925
464.49084	16824
464.74945	17080
465.00806	17103
465.26666	17514
465.52527	17236
465.78387	17261
466.04248	17694
466.30106	17630
466.55966	17834
466.81824	17997
467.07684	18301
467.33542	18294
467.59399	18520
467.85257	18513
468.11115	18750
468.36972	19099
468.6283	19109
468.88684	19523
469.14542	19500
469.40399	19451
469.66254	19916
469.92108	20080
470.17966	20170
470.4382	20157
470.69675	20421
470.95529	20877
471.21384	20739
471.47238	21402
471.7309	21167
471.98944	21493
472.24799	21660
472.5065	21580
472.76501	21746
473.02356	22132
473.28207	22140
473.54059	22382
473.7991	22486
474.05762	22565
474.31613	22725
474.57462	23066
474.83313	23011
475.09161	23287
475.35013	23527
475.60861	23677
475.8671	23931
476.12561	23712
476.38409	23655
476.64258	23910
476.90106	24100
477.15952	24078
477.418	24253
477.67648	24505
477.93494	24257
478.19339	24534
478.45187	24832
478.71033	25178
478.96878	24954
479.22723	25156
479.48569	24936
479.74414	24650
480.00259	24975
480.26102	25382
480.51947	25164
480.77789	25565
481.03635	25093
481.29477	25159
481.55319	25329
481.81161	25741
482.07004	25893
482.32846	26097
482.58688	25702
482.84528	25533
483.1037	25888
483.36209	25824
483.62051	25653
483.87891	25845
484.1373	25878
484.39569	25947
484.65408	25832
484.91248	25959
485.17087	26095
485.42923	25920
485.68762	25959
485.94598	26157
486.20438	26001
486.46274	25867
486.7211	25874
486.97946	25886
487.23782	25819
487.49619	26214
487.75455	26002
488.01291	26342
488.27124	26162
488.5296	25881
488.78793	26265
489.04626	25928
489.3046	26243
489.56293	26263
489.82126	26093
490.07959	26116
490.33792	26064
490.59622	26542
490.85455	26075
491.11285	26402
491.37119	26103
491.62949	26298
491.88779	26197
492.14609	26534
492.40439	26107
492.66269	26253
492.92096	26262
493.17926	26204
493.43756	26093
493.69583	25921
493.9541	26381
494.21237	26152
494.47064	25965
494.72891	26329
494.98718	26225
495.24545	25937
495.50372	25975
495.76196	26284
496.0202	26162
496.27847	26215
496.53671	26344
496.79495	26532
497.05319	26323
497.31143	26353
497.56967	26289
497.82788	26161
498.08612	26095
498.34433	26057
498.60257	26228
498.86078	26579
499.11899	26282
499.3772	26150
499.63541	26161
499.89362	26110
500.15179	26269
500.41	25815
500.66818	26133
500.92639	26090
501.18457	26174
501.44275	26273
501.70093	26253
501.95911	26408
502.21729	25992
502.47546	26233
502.73361	26016
502.99179	25910
503.24994	25874
503.50809	26303
503.76624	26022
504.02438	26177
504.28253	25887
504.54068	26065
504.79883	26254
505.05695	26109
505.31509	25437
505.57321	25887
505.83133	25945
506.08945	26009
506.34756	25926
506.60568	26239
506.8638	26019
507.12192	25899
507.38	25443
507.63812	25654
507.89621	25516
508.1543	25756
508.41238	25788
508.67047	25737
508.92856	25702
509.18665	25630
509.4447	25541
509.70279	25270
509.96085	25626
510.2189	25234
510.47699	25475
510.73505	25406
510.9931	25594
511.25113	25568
511.50919	25748
511.76724	25387
512.02527	25813
512.28333	25157
512.54132	25259
512.79938	25340
513.05737	25206
513.31543	25487
513.57343	25198
513.83142	25146
514.08948	24753
514.34747	25307
514.60547	24994
514.86346	25027
515.12146	24664
515.37946	24822
515.63745	24802
515.89545	24525
516.15338	24995
516.41138	24833
516.66937	24607
516.92731	24580
517.1853	24934
517.44324	24775
517.70123	24493
517.95917	24307
518.2171	24823
518.4751	24667
518.73303	24467
518.99097	24649
519.2489	24318
519.50684	24304
519.76477	24161
520.02271	24480
520.28058	24312
520.53851	24080
520.79645	23911
521.05432	23881
521.31226	24212
521.57013	23811
521.82806	23847
522.08594	23924
522.34381	23457
522.60175	23817
522.85962	23673
523.11749	23484
523.37537	23607
523.63324	23294
523.89111	23418
524.14899	23422
524.40686	23396
524.66467	23034
524.92255	22941
525.18036	23261
525.43823	23022
525.69604	23163
525.95392	22941
526.21173	22693
526.4696	22633
526.72742	22718
526.98523	22669
527.24304	22555
527.50085	22678
527.75867	22445
528.01648	22528
528.27429	21974
528.53204	22398
528.78986	22408
529.04767	22494
529.30542	22184
529.56323	21963
529.82098	21920
530.0788	21934
530.33655	21719
530.5943	21964
530.85205	21962
531.10986	21695
531.36761	21630
531.62537	21586
531.88312	21813
532.14081	21559
532.39856	21279
532.65631	21295
532.91406	21297
533.17175	21256
533.4295	21249
533.68719	21207
533.94495	21073
534.20264	21138
534.46033	20991
534.71802	21049
534.97571	21113
535.2334	20594
535.49109	20606
535.74878	20774
536.00647	20628
536.26416	20506
536.52185	20399
536.77948	20401
537.03717	20379
537.29486	20158
537.55249	19999
537.81012	20085
538.06781	20288
538.32544	20187
538.58307	19938
538.8407	19746
539.09833	19699
539.35596	19755
539.61359	19687
539.87122	19429
540.12885	19438
540.38647	19523
540.64404	19627
540.90167	19338
541.15924	19329
541.41687	19270
541.67444	18793
541.93201	18690
542.18964	19182
542.4472	18944
542.70477	19090
542.96234	18699
543.21991	18888
543.47748	18764
543.73499	18576
543.99255	18355
544.25012	18361
544.50763	18281
544.7652	18366
545.02271	18135
545.28027	18190
545.53778	18036
545.79529	18114
546.05286	18092
546.31036	18100
546.56787	18013
546.82538	17899
547.08289	17710
547.34033	17592
547.59784	17534
547.85535	17511
548.11279	17381
548.3703	17433
548.62775	17512
548.88525	17367
549.1427	17408
549.40015	17166
549.65765	16904
549.9151	16925
550.17255	17260
550.42999	16920
550.68744	16881
550.94482	16928
551.20227	16873
551.45972	16698
551.7171	16505
551.97455	16627
552.23193	16483
552.48938	16444
552.74677	16132
553.00415	16184
553.2616	16123
553.51898	16160
553.77637	15838
554.03375	15835
554.29114	15710
554.54846	15885
554.80585	15719
555.06323	15909
555.32056	15685
555.57794	15700
555.83527	15663
556.09265	15423
556.34998	15438
556.6073	15482
556.86462	15363
557.12195	15298
557.37927	15023
557.6366	15304
557.89392	15266
558.15125	15132
558.40857	14881
558.66583	14730
558.92316	14620
559.18042	14618
559.43774	14495
559.69501	14639
559.95227	14457
560.20953	14626
560.4668	14450
560.72406	14527
560.98132	14190
561.23859	14080
561.49585	13977
561.75311	14332
562.01031	14246
562.26758	14083
562.52478	13816
562.78204	13754
563.03925	13808
563.29651	14002
563.55371	13884
563.81091	13669
564.06812	13646
564.32532	13379
564.58252	13690
564.83966	13242
565.09686	13479
565.35406	13236
565.61121	13134
565.86841	13166
566.12555	13199
566.38275	13093
566.63989	12846
566.89703	12966
567.15417	13021
567.41132	12713
567.66846	12905
567.9256	12637
568.18274	12585
568.43988	12489
568.69696	12448
568.9541	12560
569.21118	12342
569.46832	12439
569.7254	12282
569.98248	12408
570.23956	12147
570.4967	12013
570.75378	11944
571.01086	12026
571.26788	11834
571.52496	11718
571.78204	11815
572.03906	12001
572.29614	11762
572.55316	11553
572.81024	11493
573.06726	11593
573.32428	11521
573.58136	11501
573.83838	11399
574.0954	11407
574.35236	11224
574.60938	11144
574.86639	11526
575.12341	11144
575.38037	11149
575.63739	11098
575.89435	10825
576.15137	10903
576.40833	11205
576.66528	11044
576.92224	10884
577.1792	10668
577.43616	10736
577.69312	10614
577.95007	10694
578.20697	10510
578.46393	10554
578.72089	10588
578.97778	10486
579.23468	10507
579.49164	10138
579.74854	10482
580.00543	10369
580.26233	10402
580.51923	10184
580.77612	10176
581.03302	10142
581.28986	10096
581.54675	10115
581.80359	9881
582.06049	9915
582.31732	9880
582.57422	9864
582.83105	9778
583.08789	9648
583.34473	9655
583.60156	9426
583.8584	9661
584.11523	9558
584.37201	9333
584.62885	9446
584.88568	9235
585.14246	9310
585.39923	9317
585.65607	9164
585.91284	9151
586.16962	9268
586.42639	9207
586.68317	9055
586.93994	8981
587.19672	9010
587.45343	9086
587.71021	8918
587.96698	8859
588.22369	8799
588.48041	8557
588.73718	8834
588.9939	8610
589.25061	8691
589.50732	8579
589.76404	8455
590.02075	8590
590.27747	8351
590.53412	8446
590.79083	8526
591.04755	8345
591.3042	8117
591.56085	8149
591.81757	8329
592.07422	8049
592.33087	8260
592.58752	8214
592.84418	7890
593.10083	8146
593.35742	7824
593.61407	8123
593.87073	7921
594.12732	7827
594.38391	7882
594.64056	7893
594.89716	7809
595.15375	7946
595.41034	7642
595.66693	7688
595.92352	7683
596.18011	7622
596.43671	7666
596.69324	7525
596.94983	7463
597.20636	7451
597.46289	7453
597.71948	7463
597.97601	7279
598.23254	7233
598.48907	7270
598.74561	7197
599.00214	7273
599.25861	7118
599.51514	6962
599.77167	7140
600.02814	6987
600.28461	7060
600.54114	7029
600.79761	6823
601.05408	7016
601.31055	6988
601.56702	6797
601.82349	6758
602.07996	6806
602.33636	6850
602.59283	6632
602.84924	6683
603.10571	6604
603.36212	6776
603.61853	6546
603.87494	6513
604.13135	6441
604.38776	6486
604.64417	6568
604.90057	6535
605.15698	6350
605.41333	6360
605.66974	6305
605.92609	6193
606.1825	6039
606.43884	6229
606.69519	6216
606.95154	6023
607.20789	6076
607.46423	6024
607.72058	6120
607.97687	6146
608.23322	5996
608.4895	5912
608.74585	5910
609.00214	5933
609.25842	5913
609.51471	5998
609.771	5874
610.02728	5762
610.28357	5826
610.53986	5665
610.79614	5695
611.05237	5697
611.30865	5630
611.56488	5767
611.82111	5666
612.07739	5491
612.33362	5483
612.58984	5460
612.84607	5573
613.10223	5464
613.35846	5467
613.61469	5193
613.87085	5345
614.12708	5289
614.38324	5286
614.63947	5191
614.89563	5187
615.15179	5292
615.40796	5160
615.66412	5125
615.92023	5047
616.17639	5211
616.43256	5035
616.68866	5022
616.94482	5096
617.20093	5023
617.45703	4966
617.71313	4905
617.9693	5030
618.22534	4801
618.48145	4921
618.73755	4908
618.99365	4722
619.24969	4767
619.5058	4905
619.76184	4722
620.01788	4709
620.27399	4704
620.53003	4691
620.78607	4538
621.04211	4801
621.2981	4610
621.55414	4513
621.81018	4595
622.06616	4619
622.3222	4558
622.57819	4593
622.83417	4574
623.09015	4472
623.34613	4512
623.60211	4348
623.85809	4454
624.11407	4407
624.37006	4387
624.62598	4241
624.88196	4338
625.13788	4302
625.3938	4261
625.64972	4299
625.9057	4221
626.16162	4143
626.41748	4325
626.6734	4308
626.92932	4285
627.18518	4100
627.4411	4129
627.69696	4028
627.95288	3937
628.20874	4086
628.4646	4032
628.72046	3948
628.97632	4026
629.23218	3976
629.48798	4007
629.74384	3996
629.99963	3849
630.25549	3857
630.51129	3880
630.76709	3856
631.02289	3810
631.27869	3794
631.53448	3808
631.79028	3780
632.04608	3741
632.30182	3821
632.55762	3745
632.81335	3790
633.06915	3796
633.32489	3576
633.58063	3660
633.83636	3667
634.0921	3615
634.34784	3572
634.60352	3666
634.85925	3477
635.11493	3452
635.37067	3554
635.62634	3509
635.88202	3402
636.1377	3383
636.39337	3496
636.64905	3424
636.90472	3374
637.1604	3408
637.41602	3306
637.67169	3422
637.92731	3384
638.18298	3396
638.4386	3373
638.69421	3410
638.94983	3267
639.20544	3350
639.46106	3284
639.71661	3253
639.97223	3426
640.22778	3208
640.4834	3150
640.73895	3245
640.99451	3168
641.25006	3263
641.50562	3112
641.76117	3112
642.01672	3104
642.27222	3094
642.52777	3055
642.78326	3165
643.03882	3016
643.29431	2926
643.5498	3042
643.8053	3094
644.06079	2973
644.31628	2917
644.57178	3087
644.82721	2922
645.0827	3067
645.33813	2929
645.59357	2921
645.84906	3002
646.10449	3019
646.35992	2791
646.61536	2837
646.87073	2883
647.12616	2935
647.38159	2785
647.63696	2905
647.8924	2846
648.14777	2727
648.40314	2848
648.65851	2655
648.91388	2743
649.16925	2760
649.42462	2650
649.67993	2766
649.9353	2739
650.19061	2684
650.44592	2676
650.70129	2618
650.9566	2630
651.21191	2638
651.46722	2673
651.72247	2546
651.97778	2619
652.23309	2557
652.48834	2515
652.74365	2590
652.9989	2521
653.25415	2567
653.5094	2510
653.76465	2557
654.0199	2508
654.27509	2493
654.53033	2514
654.78558	2503
655.04077	2425
655.29596	2438
655.55115	2392
655.80634	2436
656.06152	2387
656.31671	2368
656.5719	2375
656.82709	2345
657.08221	2393
657.3374	2376
657.59253	2339
657.84766	2352
658.10278	2270
658.35791	2242
658.61304	2300
658.86816	2269
659.12329	2295
659.37836	2258
659.63348	2264
659.88855	2219
660.14362	2277
660.39868	2196
660.65375	2224
660.90881	2156
661.16388	2216
661.41895	2285
661.67395	2132
661.92902	2099
662.18402	2150
662.43903	2118
662.69403	2149
662.94904	2085
663.20404	2052
663.45905	2089
663.71405	2088
663.96899	2089
664.224	2139
664.47894	2063
664.73395	1977
664.98889	1997
665.24384	1920
665.49878	2038
665.75366	1930
666.00861	1917
666.26355	2101
666.51843	1993
666.77338	1970
667.02826	1941
667.28314	1934
667.53802	1909
667.79291	1951
668.04779	1891
668.30261	1958
668.5575	1881
668.81232	1866
669.0672	1836
669.32202	1928
669.57684	1858
669.83167	1799
670.08649	1880
670.34131	1792
670.59613	1777
670.85089	1832
671.10571	1850
671.36047	1774
671.61523	1833
671.87	1749
672.12476	1742
672.37952	1805
672.63428	1667
672.88904	1665
673.14374	1779
673.3985	1734
673.6532	1651
673.9079	1711
674.1626	1778
674.4173	1726
674.672	1607
674.9267	1653
675.1814	1695
675.43604	1722
675.69073	1750
675.94537	1663
676.20001	1625
676.45465	1686
676.70929	1643
676.96393	1660
677.21857	1597
677.47314	1624
677.72778	1502
677.98236	1532
678.23694	1681
678.49158	1494
678.74615	1648
679.00067	1609
679.25525	1489
679.50983	1619
679.7644	1551
680.01892	1494
680.27344	1617
680.52802	1547
680.78253	1451
681.03705	1502
681.29156	1624
681.54602	1472
681.80054	1452
682.05499	1502
682.30951	1511
682.56396	1460
682.81842	1528
683.07288	1492
683.32733	1508
683.58179	1514
683.83624	1505
684.0907	1434
684.34509	1425
684.59949	1422
684.85394	1414
685.10834	1392
685.36273	1423
685.61713	1471
685.87146	1409
686.12585	1401
686.38025	1416
686.63458	1452
686.88892	1415
687.14325	1350
687.39764	1362
687.65192	1333
687.90625	1328
688.16058	1344
688.41492	1372
688.66919	1364
688.92346	1270
689.1778	1283
689.43207	1307
689.68634	1337
689.94061	1248
690.19482	1305
690.4491	1324
690.70331	1282
690.95758	1280
691.21179	1332
691.466	1276
691.72021	1242
691.97443	1280
692.22864	1314
692.48285	1221
692.737	1251
692.99121	1257
693.24536	1199
693.49951	1165
693.75366	1263
694.00781	1236
694.26196	1288
694.51611	1201
694.7702	1227
695.02435	1173
695.27844	1224
695.53253	1194
695.78668	1161
696.04077	1201
696.2948	1171
696.54889	1166
696.80298	1183
697.05701	1167
697.3111	1107
697.56512	1248
697.81915	1167
698.07318	1133
698.32721	1114
698.58124	1100
698.83521	1113
699.08923	1164
699.3432	1170
699.59723	1148
699.8512	1056
700.10516	1100
700.35913	1087
700.61304	1117
700.867	1125
701.12097	1098
701.37488	1109
701.62878	1066
701.88275	1114
702.13666	1065
702.3905	1066
702.64441	1025
702.89832	1010
703.15222	1091
703.40607	1033
703.65991	998
703.91376	1051
704.1676	999
704.42145	1026
704.67529	1011
704.92914	1063
705.18292	1054
705.43677	1037
705.69055	1001
705.94434	969
706.19812	971
706.4519	1010
706.70569	956
706.95947	992
707.2132	967
707.46698	1050
707.7207	980
707.97443	953
708.22815	923
708.48187	928
708.7356	957
708.98932	969
709.24298	933
709.4967	930
709.75037	947
710.00403	914
710.25769	967
710.51135	906
710.76501	914
711.01868	897
711.27228	898
711.52594	932
711.77954	879
712.03314	892
712.28674	851
712.54034	914
712.79395	872
713.04755	876
713.30109	914
713.55469	920
713.80823	905
714.06177	861
714.31531	854
714.56885	879
714.82239	888
715.07587	865
715.32941	859
715.58289	822
715.83643	857
716.0899	857
716.34338	787
716.59686	875
716.85028	888
717.10376	905
717.35718	862
717.61066	856
717.86407	873
718.11749	847
718.37091	829
718.62433	871
718.87775	836
719.1311	887
719.38452	844
719.63788	829
719.89124	822
720.14459	760
720.39795	833
720.65131	793
720.90466	798
721.15796	805
721.41132	759
721.66461	790
721.91791	797
722.1712	770
722.4245	799
722.6778	841
722.93103	794
723.18433	809
723.43756	762
723.6908	749
723.94409	806
724.19733	809
724.4505	756
724.70374	772
724.95697	761
725.21014	749
725.46338	765
725.71655	768
725.96973	740
726.2229	788
726.47607	780
726.72919	711
726.98236	762
727.23547	733
727.48859	709
727.74176	733
727.99487	770
728.24792	750
728.50104	772
728.75415	721
729.0072	712
729.26031	715
729.51337	710
729.76642	698
730.01947	673
730.27252	735
730.52551	685
730.77856	727
731.03156	700
731.28461	700
731.5376	713
731.79059	731
732.04358	699
732.29651	677
732.5495	655
732.80243	728
733.05542	681
733.30835	738
733.56128	664
733.81421	672
734.06714	677
734.32001	680
734.57294	675
734.82581	641
735.07874	683
735.3316	706
735.58447	649
735.83734	706
736.09015	660
736.34302	661
736.59583	648
736.84869	717
737.1015	669
737.35431	611
737.60712	642
737.85992	652
738.11267	631
738.36548	669
738.61823	652
738.87103	606
739.12378	620
739.37653	661
739.62921	624
739.88196	619
740.1347	633
740.38739	594
740.64008	645
740.89282	593
741.14551	660
741.39813	606
741.65082	610
741.9035	623
742.15613	622
742.40881	561
742.66144	583
742.91406	604
743.16669	633
743.41925	583
743.67188	584
743.9245	625
744.17706	585
744.42963	606
744.68219	564
744.93475	639
745.18732	582
745.43988	557
745.69238	611
745.94495	558
746.19745	586
746.44995	616
746.70245	568
746.95496	557
747.20746	580
747.4599	610
747.7124	562
747.96484	560
748.21729	608
748.46973	547
748.72217	571
748.97461	560
749.22699	585
749.47943	540
749.73181	517
749.98419	542
750.23657	564
750.48895	551
750.74133	566
750.99365	551
751.24603	540
751.49835	542
751.75067	555
752.00299	514
752.25531	548
752.50763	510
752.75995	534
753.01221	522
753.26453	539
753.51678	516
753.76904	525
754.0213	489
754.2735	527
754.52576	541
754.77802	539
755.03021	504
755.28241	541
755.53461	501
755.7868	563
756.039	540
756.2912	560
756.54333	525
756.79547	509
757.04767	490
757.2998	519
757.55194	552
757.80408	518
758.05615	523
758.30829	474
758.56036	527
758.81244	482
759.06451	503
759.31659	518
759.56866	499
759.82074	503
760.07275	542
760.32483	502
760.57684	504
760.82886	495
761.08087	472
761.33289	484
761.58484	472
761.83685	493
762.08881	485
762.34076	516
762.59271	485
762.84467	515
763.09662	469
763.34857	487
763.60046	479
763.85242	499
764.10431	470
764.3562	484
764.60809	495
764.85999	498
765.11182	469
765.36371	457
765.61554	478
765.86737	454
766.1192	465
766.37103	461
766.62286	474
766.87463	492
767.12646	480
767.37823	466
767.63	484
767.88177	510
768.13354	478
768.38531	447
768.63708	488
768.88879	464
769.1405	458
769.39221	437
769.64392	500
769.89563	439
770.14734	465
770.39905	470
770.6507	492
770.90234	463
771.15399	446
771.40564	450
771.65729	457
771.90894	457
772.16052	495
772.41217	471
772.66376	435
772.91534	427
773.16693	436
773.41852	471
773.67004	452
773.92163	457
774.17316	449
774.42468	471
774.67627	423
774.92773	441
775.17926	436
775.43079	453
775.68225	448
775.93378	439
776.18524	462
776.43671	446
776.68817	433
776.93958	423
777.19104	459
777.44244	422
777.69391	445
777.94531	417
778.19672	430
778.44806	409
778.69946	424
778.95087	406
779.20221	443
779.45355	425
779.7049	447
779.95624	425
780.20758	441
780.45892	421
780.71021	406
780.96149	395
781.21277	417
781.46405	434
781.71533	423
781.96661	419
782.2179	393
782.46912	426
782.72034	417
782.97156	402
783.22278	444
783.474	416
783.72522	415
783.97638	401
784.2276	419
784.47876	433
784.72992	409
784.98108	387
785.23218	431
785.48334	398
785.7345	414
785.9856	401
786.23669	410
786.48779	398
786.73889	406
786.98993	379
787.24103	406
787.49207	404
787.74316	400
787.9942	424
788.24518	404
788.49622	413
788.74725	417
788.99823	392
789.24927	375
789.50024	415
789.75122	403
790.0022	404
790.25311	387
790.50409	364
790.755	401
791.00592	412
791.25684	405
791.50775	372
791.75867	389
792.00958	390
792.26044	366
792.51129	374
792.76221	370
793.01306	409
793.26385	389
793.51471	397
793.76556	380
794.01636	374
794.26715	389
794.51794	390
794.76874	410
795.01953	413
795.27032	395
795.52106	391
795.77179	324
796.02252	371
796.27325	388
796.52399	405
796.77472	395
797.02539	382
797.27612	360
797.52679	381
797.77747	363
798.02814	393
798.27875	366
798.52942	388
798.78003	378
799.0307	374
799.28131	364
799.53192	379
799.78253	389
800.03308	377
800.28369	358
800.53424	369
800.78479	358
801.03534	371
801.28589	408
801.53644	370
801.78693	388
802.03741	370
802.28796	383
802.53845	394
802.78894	384
803.03937	394
803.28986	350
803.54028	385
803.79077	400
804.0412	363
804.29163	355
804.54199	380
804.79242	355
805.04279	355
805.29321	344
805.54358	368
805.79395	388
806.04431	360
806.29462	349
806.54498	331
806.79529	374
807.04559	374
807.2959	366
807.5462	359
807.79651	366
808.04681	366
808.29706	380
808.5473	374
808.79755	378
809.04779	376
809.29803	388
809.54828	369
809.79846	366
810.04865	348
810.29883	346
810.54901	399
810.79919	367
811.04938	379
811.2995	371
811.54962	360
811.7998	354
812.04993	355
812.29999	369
812.55011	372
812.80023	352
813.05029	336
813.30035	355
813.55042	372
813.80048	350
814.05054	362
814.30054	345
814.55054	365
814.8006	358
815.0506	348
815.3006	362
815.55054	368
815.80054	368
816.05048	359
816.30042	357
816.55042	361
816.80029	383
817.05023	363
817.30017	350
817.55005	340
817.79993	361
818.0498	336
818.29968	332
818.54956	364
818.79944	360
819.04926	340
819.29907	346
819.54895	357
819.79877	373
820.04852	348
820.29834	355
820.5481	356
820.79791	345
821.04767	362
821.29742	355
821.54712	353
821.79688	358
822.04663	363
822.29633	342
822.54602	352
822.79572	348
823.04541	341
823.29504	347
823.54474	357
823.79437	338
824.04401	357
824.29364	371
824.54327	367
824.79291	359
825.04248	356
825.29211	357
825.54169	386
825.79126	322
826.04077	327
